#23_cooling_EuGa4_Mar07_23.dat.txt
#Tue, Mar 7, 2023, 11:48 AM
#WL (nm), Int (cts)
674.996352,76.829697
675.091533,76.938788
675.186688,77.229697
675.281816,77.193333
675.376916,77.029697
675.471990,77.066061
675.567037,76.920606
675.662057,76.666061
675.757051,76.120606
675.852017,75.920606
675.946956,76.156970
676.041869,76.029697
676.136754,75.520606
676.231613,75.029697
676.326444,75.066061
676.421249,75.411515
676.516027,75.084242
676.610778,75.229697
676.705502,75.520606
676.800199,75.738788
676.894869,75.975152
676.989513,75.775152
677.084129,76.120606
677.178718,76.484242
677.273281,76.211515
677.367816,76.375152
677.462325,76.211515
677.556807,76.920606
677.651261,77.138788
677.745689,77.084242
677.840090,77.684242
677.934464,77.102424
678.028811,76.829697
678.123131,76.538788
678.217424,76.356970
678.311690,76.484242
678.405930,76.738788
678.500142,76.811515
678.594327,76.466061
678.688486,76.702424
678.782617,76.975152
678.876722,76.284242
678.970799,76.556970
679.064850,76.756970
679.158873,77.120606
679.252870,77.520606
679.346840,77.775152
679.440783,77.284242
679.534698,78.447879
679.628587,78.866061
679.722449,79.120606
679.816284,78.938788
679.910092,79.684242
680.003873,80.429697
680.097627,81.102424
680.191354,81.284242
680.285054,81.320606
680.378727,82.266061
680.472373,82.447879
680.565993,81.484242
680.659585,82.193333
680.753150,82.084242
680.846688,81.938788
680.940199,81.629697
681.033684,81.084242
681.127141,80.775152
681.220571,80.029697
681.313975,79.484242
681.407351,78.666061
681.500700,78.538788
681.594023,82.720606
681.687318,81.793333
681.780587,81.011515
681.873828,80.866061
681.967042,80.593333
682.060230,80.466061
682.153390,80.066061
682.246524,80.011515
682.339630,79.666061
682.432710,79.375152
682.525762,79.120606
682.618788,74.702424
682.711786,74.993333
682.804757,75.302424
682.897702,75.084242
682.990619,75.175152
683.083510,75.029697
683.176373,75.284242
683.269210,75.393333
683.362019,75.738788
683.454801,75.884242
683.547557,75.629697
683.640285,75.484242
683.732986,75.302424
683.825661,75.756970
683.918308,76.193333
684.010928,76.247879
684.103522,76.466061
684.196088,76.302424
684.288627,76.684242
684.381139,77.211515
684.473624,77.520606
684.566082,78.193333
684.658514,78.120606
684.750918,78.266061
684.843295,78.447879
684.935645,78.611515
685.027968,78.575152
685.120264,78.775152
685.212533,79.356970
685.304774,79.738788
685.396989,79.647879
685.489177,80.211515
685.581338,80.666061
685.673471,81.393333
685.765578,81.811515
685.857658,82.429697
685.949710,83.229697
686.041736,84.375152
686.133734,86.047879
686.225706,87.775152
686.317650,90.120606
686.409567,92.975152
686.501458,95.538788
686.593321,98.538788
686.685157,102.011515
686.776966,106.066061
686.868748,109.811515
686.960503,113.793333
687.052231,117.320606
687.143932,120.611515
687.235606,123.011515
687.327252,125.593333
687.418872,127.011515
687.510465,128.047879
687.602030,127.920606
687.693569,127.120606
687.785080,125.811515
687.876564,123.611515
687.968021,120.902424
688.059452,117.938788
688.150855,114.375152
688.242231,111.829697
688.333580,107.738788
688.424901,103.829697
688.516196,100.320606
688.607464,97.302424
688.698704,94.502424
688.789918,90.829697
688.881104,88.284242
688.972264,85.884242
689.063396,83.502424
689.154501,81.702424
689.245579,79.138788
689.336630,77.666061
689.427654,76.502424
689.518651,75.066061
689.609620,74.102424
689.700563,73.738788
689.791478,73.047879
689.882367,72.538788
689.973228,73.084242
690.064062,74.429697
690.154869,74.647879
690.245649,75.466061
690.336402,76.338788
690.427128,77.920606
690.517826,78.993333
690.608498,78.811515
690.699142,77.756970
690.789759,77.956970
690.880350,78.284242
690.970913,76.884242
691.061449,75.120606
691.151957,74.266061
691.242439,72.993333
691.332894,71.629697
691.423321,69.938788
691.513721,68.411515
691.604095,68.520606
691.694441,68.956970
691.784760,69.338788
691.875051,69.411515
691.965316,69.956970
692.055554,70.629697
692.145764,71.393333
692.235947,72.411515
692.326104,73.011515
692.416233,74.447879
692.506334,76.738788
692.596409,79.393333
692.686457,82.466061
692.776477,86.666061
692.866471,91.502424
692.956437,97.411515
693.046376,104.738788
693.136288,112.193333
693.226172,119.066061
693.316030,126.047879
693.405860,132.138788
693.495664,136.775152
693.585440,139.975152
693.675189,142.538788
693.764911,143.720606
693.854605,144.884242
693.944273,146.993333
694.033913,151.720606
694.123526,161.411515
694.213112,179.975152
694.302671,209.120606
694.392203,244.247879
694.481707,281.775152
694.571185,314.193333
694.660635,339.884242
694.750058,357.666061
694.839454,369.520606
694.928822,375.266061
695.018164,375.375152
695.107478,369.538788
695.196765,355.538788
695.286025,332.102424
695.375258,305.084242
695.464464,282.320606
695.553642,275.320606
695.642793,289.120606
695.731918,327.047879
695.821014,383.175152
695.910084,448.102424
695.999127,509.066061
696.088142,557.066061
696.177130,589.629697
696.266091,608.302424
696.355025,615.266061
696.443931,610.575152
696.532811,591.447879
696.621663,556.138788
696.710488,502.211515
696.799286,433.956970
696.888056,360.029697
696.976799,290.811515
697.065516,234.538788
697.154205,193.575152
697.242866,164.629697
697.331501,144.684242
697.420108,130.611515
697.508688,120.702424
697.597241,112.484242
697.685767,106.993333
697.774265,101.847879
697.862737,98.411515
697.951181,95.429697
698.039598,93.102424
698.127987,90.866061
698.216350,88.793333
698.304685,87.284242
698.392993,84.993333
698.481274,83.411515
698.569527,82.175152
698.657753,81.429697
698.745953,80.793333
698.834124,79.502424
698.922269,78.502424
699.010386,77.066061
699.098477,76.120606
699.186539,75.102424
699.274575,74.338788
699.362584,74.884242
699.450565,74.920606
699.538519,74.993333
699.626445,74.520606
699.714345,74.684242
699.802217,74.702424
699.890062,74.902424
699.977880,75.302424
700.065671,75.375152
700.153434,75.575152
700.241170,75.138788
700.328879,74.593333
700.416560,73.756970
700.504214,73.320606
700.591841,72.484242
700.679441,71.847879
700.767014,71.484242
700.854559,70.975152
700.942077,70.447879
701.029568,69.956970
701.117031,69.793333
701.204467,70.175152
701.291876,70.429697
701.379258,70.775152
701.466612,71.156970
701.553939,72.211515
701.641239,73.266061
701.728512,74.356970
701.815757,75.484242
701.902975,76.447879
701.990166,77.047879
702.077330,78.029697
702.164466,78.629697
702.251575,78.993333
702.338657,79.084242
702.425711,79.011515
702.512738,78.611515
702.599738,77.884242
702.686710,77.811515
702.773656,77.629697
702.860574,77.811515
702.947464,78.120606
703.034328,78.138788
703.121164,78.593333
703.207973,79.156970
703.294754,80.938788
703.381509,82.847879
703.468235,85.447879
703.554935,88.629697
703.641607,91.666061
703.728253,95.211515
703.814870,98.284242
703.901461,101.211515
703.988024,103.393333
704.074560,104.793333
704.161068,106.175152
704.247549,105.920606
704.334003,106.120606
704.420430,105.556970
704.506829,104.047879
704.593201,102.593333
704.679546,101.538788
704.765863,100.793333
704.852153,100.211515
704.938416,100.720606
705.024652,102.338788
705.110860,104.575152
705.197040,107.720606
705.283194,110.866061
705.369320,115.102424
705.455419,119.666061
705.541490,125.229697
705.627534,130.447879
705.713551,136.647879
705.799541,143.229697
705.885503,150.920606
705.971438,158.847879
706.057345,167.247879
706.143225,176.047879
706.229078,185.447879
706.314904,194.502424
706.400702,204.520606
706.486473,213.266061
706.572216,221.647879
706.657932,229.175152
706.743621,236.211515
706.829282,241.047879
706.914917,243.684242
707.000523,244.811515
707.086103,244.502424
707.171655,241.484242
707.257179,236.356970
707.342677,229.666061
707.428147,223.156970
707.513589,215.266061
707.599005,206.702424
707.684393,197.793333
707.769753,189.629697
707.855086,183.011515
707.940392,177.902424
708.025671,175.011515
708.110922,176.047879
708.196146,180.502424
708.281342,189.629697
708.366511,201.611515
708.451653,216.556970
708.536767,233.011515
708.621854,250.884242
708.706913,268.266061
708.791946,284.647879
708.876950,296.393333
708.961928,303.120606
709.046878,304.266061
709.131800,300.229697
709.216696,289.647879
709.301564,274.047879
709.386404,255.684242
709.471217,234.920606
709.556003,212.611515
709.640761,191.120606
709.725492,170.047879
709.810196,151.229697
709.894872,136.502424
709.979521,124.993333
710.064142,116.720606
710.148736,111.138788
710.233303,106.702424
710.317842,103.593333
710.402354,102.847879
710.486838,101.884242
710.571295,101.138788
710.655725,100.884242
710.740127,101.956970
710.824502,103.666061
710.908849,105.884242
710.993169,108.956970
711.077462,112.884242
711.161727,119.102424
711.245965,127.738788
711.330175,136.666061
711.414358,148.556970
711.498514,160.556970
711.582642,173.629697
711.666743,187.611515
711.750816,201.684242
711.834862,215.593333
711.918880,228.047879
712.002871,238.447879
712.086835,246.284242
712.170771,250.902424
712.254680,253.047879
712.338561,251.702424
712.422415,248.229697
712.506241,241.447879
712.590040,231.902424
712.673812,219.393333
712.757556,205.066061
712.841273,189.629697
712.924962,175.266061
713.008624,160.884242
713.092258,146.647879
713.175865,133.447879
713.259445,120.684242
713.342997,109.866061
713.426522,101.284242
713.510019,93.884242
713.593489,87.902424
713.676931,83.429697
713.760346,80.720606
713.843733,77.266061
713.927093,75.011515
714.010426,73.611515
714.093731,71.975152
714.177008,71.029697
714.260258,69.866061
714.343481,68.229697
714.426676,66.956970
714.509844,66.047879
714.592984,65.502424
714.676097,64.884242
714.759183,65.193333
714.842240,65.666061
714.925271,65.466061
715.008274,66.156970
715.091249,66.993333
715.174197,67.429697
715.257118,68.284242
715.340011,69.156970
715.422877,70.393333
715.505715,70.484242
715.588525,70.738788
715.671309,70.647879
715.754064,70.175152
715.836793,70.247879
715.919493,69.884242
716.002167,69.247879
716.084812,68.884242
716.167431,68.538788
716.250021,68.302424
716.332585,67.775152
716.415121,68.175152
716.497629,68.102424
716.580110,67.938788
716.662563,68.338788
716.744989,68.156970
716.827387,68.029697
716.909758,68.175152
716.992102,67.993333
717.074417,67.629697
717.156706,67.647879
717.238967,67.502424
717.321200,67.575152
717.403406,67.575152
717.485584,67.320606
717.567735,67.047879
717.649858,66.938788
717.731954,66.993333
717.814023,66.775152
717.896063,66.447879
717.978077,66.284242
718.060062,65.811515
718.142021,65.647879
718.223951,65.066061
718.305855,64.829697
718.387730,65.120606
718.469579,64.411515
718.551399,64.538788
718.633192,64.047879
718.714958,63.611515
718.796696,63.956970
718.878407,63.793333
718.960090,63.484242
719.041745,63.320606
719.123373,62.975152
719.204974,63.193333
719.286546,63.156970
719.368092,63.066061
719.449610,62.611515
719.531100,62.647879
719.612563,62.611515
719.693998,62.066061
719.775406,62.047879
719.856786,61.993333
719.938138,61.520606
720.019463,61.320606
720.100761,60.629697
720.182031,59.884242
720.263273,59.866061
720.344488,59.102424
720.425675,58.829697
720.506835,58.720606
720.587967,58.975152
720.669072,58.375152
720.750149,58.575152
720.831199,58.793333
720.912220,59.029697
720.993215,59.466061
721.074182,59.629697
721.155121,59.720606
721.236033,59.993333
721.316917,59.411515
721.397773,59.102424
721.478602,58.593333
721.559404,58.702424
721.640178,58.302424
721.720924,57.793333
721.801643,57.393333
721.882334,56.702424
721.962998,56.302424
722.043634,55.647879
722.124242,55.429697
722.204823,55.411515
722.285376,54.866061
722.365902,54.484242
722.446400,54.411515
722.526870,54.284242
722.607313,54.411515
722.687729,53.993333
722.768116,53.684242
722.848477,53.775152
722.928809,54.084242
723.009114,53.829697
723.089391,53.884242
723.169641,54.502424
723.249863,54.102424
723.330058,53.593333
723.410225,53.284242
723.490364,53.193333
723.570476,53.447879
723.650560,53.611515
723.730617,53.284242
723.810646,53.393333
723.890647,53.538788
723.970621,53.356970
724.050567,53.211515
724.130486,53.484242
724.210377,53.775152
724.290240,53.866061
724.370076,53.102424
724.449884,53.029697
724.529665,52.975152
724.609417,52.902424
724.689143,52.175152
724.768840,51.847879
724.848510,52.902424
724.928153,52.375152
725.007767,52.120606
725.087355,51.793333
725.166914,51.466061
725.246446,52.156970
725.325950,52.084242
725.405427,51.647879
725.484876,51.720606
725.564297,51.756970
725.643691,52.066061
725.723057,50.847879
725.802396,51.175152
725.881706,51.356970
725.960990,51.411515
726.040245,51.156970
726.119473,51.066061
726.198673,50.756970
726.277846,50.611515
726.356991,50.647879
726.436108,51.193333
726.515198,51.120606
726.594260,51.156970
726.673294,51.011515
726.752301,51.047879
726.831280,51.320606
726.910231,51.356970
726.989155,51.229697
727.068051,51.302424
727.146920,51.575152
727.225761,51.302424
727.304574,50.538788
727.383359,49.847879
727.462117,49.720606
727.540847,49.175152
727.619550,49.211515
727.698224,48.829697
727.776871,48.920606
727.855491,48.956970
727.934083,49.084242
728.012647,48.720606
728.091183,48.284242
728.169692,48.702424
728.248173,48.775152
728.326627,48.993333
728.405052,49.520606
728.483450,49.247879
728.561821,49.429697
728.640163,49.629697
728.718479,49.484242
728.796766,48.847879
728.875025,49.066061
728.953257,49.356970
729.031462,48.629697
729.109638,48.920606
729.187787,49.011515
729.265908,48.720606
729.344002,48.884242
729.422068,48.320606
729.500106,48.356970
729.578116,48.084242
729.656099,48.193333
729.734054,47.847879
729.811981,47.684242
729.889881,48.029697
729.967753,47.793333
730.045597,47.320606
730.123414,47.556970
730.201202,47.266061
730.278963,47.429697
730.356697,47.284242
730.434402,47.575152
730.512080,47.611515
730.589731,47.647879
730.667353,47.902424
730.744948,48.120606
730.822515,48.066061
730.900054,48.175152
730.977566,47.593333
731.055050,48.066061
731.132506,48.229697
731.209935,47.956970
731.287335,47.629697
731.364708,47.447879
731.442054,47.411515
731.519371,46.866061
731.596661,46.466061
731.673923,45.993333
731.751158,45.575152
731.828364,45.411515
731.905543,44.811515
731.982694,44.411515
732.059818,44.502424
732.136913,44.356970
732.213981,44.175152
732.291022,44.084242
732.368034,44.593333
732.445019,44.247879
732.521976,44.393333
732.598905,44.720606
732.675806,44.775152
732.752680,44.575152
732.829526,44.611515
732.906344,44.047879
732.983135,43.720606
733.059898,43.920606
733.136633,43.975152
733.213340,43.684242
733.290019,43.975152
733.366671,43.702424
733.443295,42.993333
733.519891,42.920606
733.596459,43.156970
733.673000,42.920606
733.749513,42.829697
733.825998,43.193333
733.902455,43.411515
733.978885,42.920606
734.055287,42.666061
734.131661,42.011515
734.208007,42.066061
734.284326,42.556970
734.360616,42.666061
734.436879,42.338788
734.513114,42.684242
734.589322,43.175152
734.665501,42.920606
734.741653,42.393333
734.817777,42.629697
734.893873,43.102424
734.969942,43.975152
735.045982,44.338788
735.121995,44.102424
735.197980,43.793333
735.273938,44.593333
735.349867,44.011515
735.425769,44.029697
735.501643,44.011515
735.577489,44.211515
735.653307,43.938788
735.729098,43.775152
735.804860,43.920606
735.880595,43.756970
735.956302,43.884242
736.031982,44.029697
736.107633,43.356970
736.183257,43.866061
736.258853,43.993333
736.334421,44.029697
736.409961,43.902424
736.485474,44.102424
736.560958,44.011515
736.636415,43.629697
736.711844,43.175152
736.787245,43.120606
736.862619,43.029697
736.937964,43.375152
737.013282,43.302424
737.088572,42.756970
737.163834,42.775152
737.239068,43.611515
737.314275,43.538788
737.389453,43.320606
737.464604,43.156970
737.539727,43.575152
737.614822,43.411515
737.689890,43.756970
737.764929,43.575152
737.839941,43.429697
737.914925,43.502424
737.989881,43.338788
738.064809,42.829697
738.139709,42.829697
738.214581,42.629697
738.289426,42.193333
738.364243,42.320606
738.439032,42.302424
738.513793,42.338788
738.588526,42.047879
738.663231,41.847879
738.737909,42.047879
738.812559,41.920606
738.887180,41.266061
738.961774,41.684242
739.036340,41.720606
739.110879,42.193333
739.185389,42.629697
739.259872,42.647879
739.334326,42.266061
739.408753,41.975152
739.483152,42.084242
739.557523,41.920606
739.631866,42.356970
739.706182,42.702424
739.780469,41.993333
739.854729,42.138788
739.928961,41.920606
740.003165,41.211515
740.077341,41.047879
740.151489,41.575152
740.225609,41.484242
740.299701,41.193333
740.373766,41.302424
740.447802,41.356970
740.521811,41.629697
740.595792,42.011515
740.669745,41.993333
740.743670,41.993333
740.817567,42.066061
740.891437,41.902424
740.965278,41.320606
741.039092,41.556970
741.112877,41.793333
741.186635,41.611515
741.260365,41.247879
741.334067,40.993333
741.407741,40.902424
741.481387,41.229697
741.555006,41.356970
741.628596,41.756970
741.702159,42.647879
741.775693,43.029697
741.849200,43.284242
741.922679,43.793333
741.996130,44.211515
742.069552,44.775152
742.142948,45.502424
742.216315,46.102424
742.289654,46.429697
742.362965,46.611515
742.436249,46.647879
742.509504,46.647879
742.582732,46.956970
742.655932,46.793333
742.729103,46.302424
742.802247,46.193333
742.875363,45.793333
742.948451,45.266061
743.021511,44.738788
743.094543,44.302424
743.167548,44.138788
743.240524,43.266061
743.313472,42.738788
743.386393,42.320606
743.459285,42.284242
743.532150,42.302424
743.604986,41.902424
743.677795,41.593333
743.750576,41.193333
743.823329,41.029697
743.896054,40.702424
743.968751,40.411515
744.041420,41.084242
744.114061,40.538788
744.186674,40.266061
744.259259,40.066061
744.331816,39.829697
744.404346,39.575152
744.476847,39.502424
744.549320,39.338788
744.621766,39.593333
744.694183,39.502424
744.766573,39.575152
744.838934,38.902424
744.911268,39.302424
744.983574,39.120606
745.055851,39.356970
745.128101,39.629697
745.200323,39.938788
745.272517,40.175152
745.344683,40.538788
745.416820,40.538788
745.488930,41.211515
745.561012,41.375152
745.633066,41.956970
745.705092,41.720606
745.777090,41.775152
745.849061,41.356970
745.921003,41.375152
745.992917,41.156970
746.064803,41.593333
746.136661,41.920606
746.208491,41.866061
746.280294,41.920606
746.352068,42.284242
746.423814,42.684242
746.495532,43.375152
746.567223,43.520606
746.638885,43.956970
746.710519,43.902424
746.782126,44.029697
746.853704,43.393333
746.925254,42.811515
746.996777,42.956970
747.068271,42.775152
747.139737,42.520606
747.211176,41.811515
747.282586,41.047879
747.353968,40.975152
747.425323,40.411515
747.496649,40.593333
747.567947,41.029697
747.639218,40.975152
747.710460,41.029697
747.781675,40.938788
747.852861,40.066061
747.924019,40.029697
747.995149,40.247879
748.066252,40.193333
748.137326,40.338788
748.208372,40.575152
748.279391,39.811515
748.350381,39.302424
748.421343,39.120606
748.492277,38.956970
748.563183,38.593333
748.634062,38.720606
748.704912,37.938788
748.775734,37.684242
748.846528,38.066061
748.917294,37.611515
748.988032,37.575152
749.058742,37.793333
749.129424,37.538788
749.200078,37.920606
749.270704,38.175152
749.341302,38.193333
749.411872,38.556970
749.482413,39.066061
749.552927,39.211515
749.623413,39.393333
749.693871,39.684242
749.764300,39.775152
749.834702,39.738788
749.905075,39.847879
