#30_cooling_EuGa4_Mar07_23.dat.txt
#Tue, Mar 7, 2023, 12:08 PM
#WL (nm), Int (cts)
674.996352,74.557879
675.091533,74.757879
675.186688,75.321515
675.281816,75.466970
675.376916,75.285152
675.471990,75.485152
675.567037,75.448788
675.662057,75.703333
675.757051,75.048788
675.852017,75.121515
675.946956,75.285152
676.041869,75.466970
676.136754,75.103333
676.231613,74.866970
676.326444,74.903333
676.421249,75.139697
676.516027,74.648788
676.610778,74.612424
676.705502,74.266970
676.800199,74.248788
676.894869,74.757879
676.989513,74.921515
677.084129,74.812424
677.178718,75.103333
677.273281,74.412424
677.367816,74.357879
677.462325,74.376061
677.556807,74.885152
677.651261,75.539697
677.745689,75.776061
677.840090,76.466970
677.934464,76.012424
678.028811,75.430606
678.123131,75.612424
678.217424,75.794242
678.311690,75.812424
678.405930,76.430606
678.500142,76.430606
678.594327,76.485152
678.688486,76.485152
678.782617,76.576061
678.876722,75.866970
678.970799,76.066970
679.064850,76.466970
679.158873,76.703333
679.252870,76.685152
679.346840,76.976061
679.440783,76.794242
679.534698,77.939697
679.628587,78.212424
679.722449,78.321515
679.816284,78.612424
679.910092,79.085152
680.003873,79.503333
680.097627,80.503333
680.191354,80.503333
680.285054,80.576061
680.378727,81.648788
680.472373,81.757879
680.565993,80.976061
680.659585,81.448788
680.753150,81.248788
680.846688,80.557879
680.940199,80.794242
681.033684,80.503333
681.127141,79.994242
681.220571,79.903333
681.313975,79.266970
681.407351,78.903333
681.500700,78.357879
681.594023,82.466970
681.687318,81.976061
681.780587,81.503333
681.873828,81.648788
681.967042,81.157879
682.060230,81.085152
682.153390,80.521515
682.246524,80.466970
682.339630,80.466970
682.432710,80.048788
682.525762,80.266970
682.618788,75.812424
682.711786,75.666970
682.804757,76.121515
682.897702,76.321515
682.990619,76.557879
683.083510,76.248788
683.176373,76.194242
683.269210,76.321515
683.362019,76.576061
683.454801,76.576061
683.547557,76.448788
683.640285,76.557879
683.732986,76.430606
683.825661,76.285152
683.918308,76.030606
684.010928,76.012424
684.103522,75.994242
684.196088,76.394242
684.288627,76.176061
684.381139,76.521515
684.473624,76.921515
684.566082,77.121515
684.658514,76.903333
684.750918,77.121515
684.843295,77.848788
684.935645,78.230606
685.027968,78.466970
685.120264,78.903333
685.212533,79.139697
685.304774,79.666970
685.396989,79.994242
685.489177,80.539697
685.581338,81.339697
685.673471,82.176061
685.765578,82.757879
685.857658,83.321515
685.949710,84.394242
686.041736,84.976061
686.133734,86.703333
686.225706,88.521515
686.317650,91.085152
686.409567,93.466970
686.501458,96.412424
686.593321,99.557879
686.685157,102.921515
686.776966,107.085152
686.868748,110.630606
686.960503,114.376061
687.052231,118.903333
687.143932,122.085152
687.235606,124.957879
687.327252,127.412424
687.418872,129.048788
687.510465,129.576061
687.602030,129.376061
687.693569,128.812424
687.785080,126.976061
687.876564,124.830606
687.968021,122.048788
688.059452,118.557879
688.150855,115.194242
688.242231,112.266970
688.333580,107.830606
688.424901,103.976061
688.516196,99.957879
688.607464,96.448788
688.698704,93.157879
688.789918,90.012424
688.881104,87.176061
688.972264,84.939697
689.063396,82.939697
689.154501,80.776061
689.245579,78.103333
689.336630,76.739697
689.427654,75.412424
689.518651,74.757879
689.609620,74.285152
689.700563,73.794242
689.791478,73.194242
689.882367,73.085152
689.973228,74.248788
690.064062,75.139697
690.154869,75.739697
690.245649,76.776061
690.336402,77.921515
690.427128,79.339697
690.517826,80.012424
690.608498,79.430606
690.699142,78.721515
690.789759,78.576061
690.880350,78.539697
690.970913,76.557879
691.061449,74.866970
691.151957,73.921515
691.242439,72.339697
691.332894,71.066970
691.423321,69.557879
691.513721,68.176061
691.604095,68.612424
691.694441,69.157879
691.784760,69.503333
691.875051,69.976061
691.965316,70.430606
692.055554,71.176061
692.145764,71.776061
692.235947,72.921515
692.326104,73.776061
692.416233,75.412424
692.506334,77.939697
692.596409,80.612424
692.686457,83.866970
692.776477,88.448788
692.866471,93.394242
692.956437,99.812424
693.046376,107.030606
693.136288,114.503333
693.226172,122.212424
693.316030,129.303333
693.405860,135.630606
693.495664,140.412424
693.585440,144.612424
693.675189,148.139697
693.764911,151.285152
693.854605,157.103333
693.944273,168.048788
694.033913,190.994242
694.123526,229.466970
694.213112,277.648788
694.302671,328.085152
694.392203,371.321515
694.481707,403.812424
694.571185,424.757879
694.660635,436.721515
694.750058,443.085152
694.839454,444.066970
694.928822,437.394242
695.018164,417.921515
695.107478,383.357879
695.196765,341.157879
695.286025,301.776061
695.375258,280.666970
695.464464,291.085152
695.553642,341.357879
695.642793,426.921515
695.731918,529.830606
695.821014,624.012424
695.910084,694.503333
695.999127,740.539697
696.088142,766.157879
696.177130,776.394242
696.266091,774.248788
696.355025,756.521515
696.443931,716.412424
696.532811,644.648788
696.621663,545.539697
696.710488,432.594242
696.799286,329.848788
696.888056,251.685152
696.976799,197.648788
697.065516,163.176061
697.154205,141.485152
697.242866,126.576061
697.331501,116.357879
697.420108,108.521515
697.508688,103.430606
697.597241,99.194242
697.685767,96.703333
697.774265,93.848788
697.862737,91.721515
697.951181,89.794242
698.039598,87.885152
698.127987,85.757879
698.216350,84.485152
698.304685,82.885152
698.392993,81.357879
698.481274,80.103333
698.569527,79.466970
698.657753,78.721515
698.745953,78.157879
698.834124,77.103333
698.922269,76.157879
699.010386,75.176061
699.098477,75.157879
699.186539,74.521515
699.274575,74.666970
699.362584,75.394242
699.450565,76.157879
699.538519,76.503333
699.626445,76.248788
699.714345,76.721515
699.802217,77.430606
699.890062,77.776061
699.977880,77.885152
700.065671,77.576061
700.153434,77.594242
700.241170,77.212424
700.328879,76.066970
700.416560,74.903333
700.504214,73.957879
700.591841,73.048788
700.679441,72.321515
700.767014,71.721515
700.854559,71.030606
700.942077,70.248788
701.029568,69.957879
701.117031,69.430606
701.204467,69.248788
701.291876,70.357879
701.379258,71.412424
701.466612,73.048788
701.553939,75.357879
701.641239,76.830606
701.728512,78.557879
701.815757,80.139697
701.902975,81.557879
701.990166,82.066970
702.077330,82.994242
702.164466,83.957879
702.251575,83.466970
702.338657,83.176061
702.425711,82.266970
702.512738,80.666970
702.599738,79.448788
702.686710,79.048788
702.773656,78.721515
702.860574,78.848788
702.947464,79.885152
703.034328,80.430606
703.121164,81.085152
703.207973,82.594242
703.294754,84.976061
703.381509,88.412424
703.468235,92.812424
703.554935,97.812424
703.641607,101.921515
703.728253,106.539697
703.814870,110.594242
703.901461,113.176061
703.988024,115.030606
704.074560,115.666970
704.161068,115.757879
704.247549,114.757879
704.334003,112.939697
704.420430,110.339697
704.506829,106.921515
704.593201,103.503333
704.679546,100.721515
704.765863,98.848788
704.852153,98.121515
704.938416,99.157879
705.024652,101.212424
705.110860,104.303333
705.197040,107.903333
705.283194,111.885152
705.369320,116.357879
705.455419,121.339697
705.541490,126.903333
705.627534,132.903333
705.713551,139.194242
705.799541,145.648788
705.885503,153.285152
705.971438,161.121515
706.057345,169.376061
706.143225,178.157879
706.229078,186.848788
706.314904,196.357879
706.400702,206.230606
706.486473,215.376061
706.572216,224.266970
706.657932,232.394242
706.743621,239.757879
706.829282,244.539697
706.914917,248.394242
707.000523,249.885152
707.086103,249.612424
707.171655,247.466970
707.257179,242.866970
707.342677,237.430606
707.428147,231.976061
707.513589,224.430606
707.599005,216.212424
707.684393,207.739697
707.769753,199.739697
707.855086,193.230606
707.940392,187.957879
708.025671,185.103333
708.110922,185.703333
708.196146,189.848788
708.281342,197.557879
708.366511,208.485152
708.451653,222.212424
708.536767,239.230606
708.621854,257.266970
708.706913,274.412424
708.791946,289.503333
708.876950,301.812424
708.961928,308.430606
709.046878,309.521515
709.131800,305.103333
709.216696,294.848788
709.301564,279.030606
709.386404,260.648788
709.471217,238.412424
709.556003,215.721515
709.640761,193.885152
709.725492,172.957879
709.810196,153.412424
709.894872,138.303333
709.979521,126.794242
710.064142,118.357879
710.148736,112.521515
710.233303,108.666970
710.317842,105.939697
710.402354,105.085152
710.486838,103.939697
710.571295,103.030606
710.655725,102.666970
710.740127,103.885152
710.824502,105.066970
710.908849,106.921515
710.993169,110.012424
711.077462,114.430606
711.161727,120.648788
711.245965,128.739697
711.330175,137.703333
711.414358,148.976061
711.498514,161.794242
711.582642,175.648788
711.666743,190.212424
711.750816,204.648788
711.834862,218.357879
711.918880,230.903333
712.002871,240.721515
712.086835,249.030606
712.170771,253.503333
712.254680,255.503333
712.338561,254.121515
712.422415,250.757879
712.506241,243.521515
712.590040,233.339697
712.673812,220.776061
712.757556,206.503333
712.841273,191.194242
712.924962,176.557879
713.008624,161.557879
713.092258,147.812424
713.175865,134.939697
713.259445,122.703333
713.342997,111.685152
713.426522,102.812424
713.510019,95.430606
713.593489,89.957879
713.676931,86.157879
713.760346,83.430606
713.843733,80.776061
713.927093,78.485152
714.010426,76.848788
714.093731,74.976061
714.177008,74.212424
714.260258,72.939697
714.343481,71.685152
714.426676,70.776061
714.509844,70.103333
714.592984,69.612424
714.676097,68.976061
714.759183,68.994242
714.842240,69.576061
714.925271,69.757879
715.008274,70.539697
715.091249,71.085152
715.174197,71.339697
715.257118,71.976061
715.340011,72.703333
715.422877,73.266970
715.505715,73.394242
715.588525,73.612424
715.671309,73.357879
715.754064,72.612424
715.836793,72.303333
715.919493,72.030606
716.002167,71.666970
716.084812,71.066970
716.167431,71.085152
716.250021,70.394242
716.332585,70.048788
716.415121,69.957879
716.497629,69.612424
716.580110,69.576061
716.662563,70.303333
716.744989,70.066970
716.827387,69.757879
716.909758,69.521515
716.992102,69.739697
717.074417,69.357879
717.156706,69.485152
717.238967,69.521515
717.321200,69.648788
717.403406,69.830606
717.485584,69.430606
717.567735,68.903333
717.649858,69.066970
717.731954,68.976061
717.814023,68.739697
717.896063,68.430606
717.978077,67.957879
718.060062,67.757879
718.142021,67.176061
718.223951,66.866970
718.305855,66.630606
718.387730,66.739697
718.469579,66.266970
718.551399,65.994242
718.633192,65.866970
718.714958,65.521515
718.796696,65.721515
718.878407,65.630606
718.960090,65.448788
719.041745,65.576061
719.123373,64.703333
719.204974,64.285152
719.286546,64.176061
719.368092,63.630606
719.449610,63.648788
719.531100,63.394242
719.612563,63.521515
719.693998,62.830606
719.775406,62.466970
719.856786,62.066970
719.938138,61.412424
720.019463,61.321515
720.100761,61.485152
720.182031,61.030606
720.263273,61.539697
720.344488,60.503333
720.425675,60.176061
720.506835,59.794242
720.587967,60.157879
720.669072,59.557879
720.750149,59.848788
720.831199,60.085152
720.912220,60.285152
720.993215,60.285152
721.074182,60.357879
721.155121,60.412424
721.236033,60.866970
721.316917,60.776061
721.397773,60.521515
721.478602,60.048788
721.559404,60.139697
721.640178,59.612424
721.720924,59.176061
721.801643,58.685152
721.882334,58.066970
721.962998,57.503333
722.043634,56.794242
722.124242,56.357879
722.204823,56.176061
722.285376,55.794242
722.365902,55.285152
722.446400,55.303333
722.526870,55.321515
722.607313,55.630606
722.687729,55.448788
722.768116,55.103333
722.848477,55.648788
722.928809,55.776061
723.009114,56.012424
723.089391,56.066970
723.169641,56.757879
723.249863,56.666970
723.330058,56.648788
723.410225,56.576061
723.490364,56.121515
723.570476,56.157879
723.650560,56.448788
723.730617,56.157879
723.810646,55.994242
723.890647,55.630606
723.970621,55.557879
724.050567,55.121515
724.130486,55.157879
724.210377,54.776061
724.290240,54.394242
724.370076,53.830606
724.449884,53.739697
724.529665,53.212424
724.609417,53.030606
724.689143,52.557879
724.768840,52.412424
724.848510,52.812424
724.928153,52.466970
725.007767,52.121515
725.087355,52.139697
725.166914,52.030606
725.246446,52.612424
725.325950,52.776061
725.405427,52.466970
725.484876,52.648788
725.564297,52.576061
725.643691,52.630606
725.723057,51.921515
725.802396,51.994242
725.881706,52.066970
725.960990,52.085152
726.040245,51.430606
726.119473,51.048788
726.198673,50.812424
726.277846,50.757879
726.356991,50.430606
726.436108,50.721515
726.515198,50.703333
726.594260,50.539697
726.673294,50.448788
726.752301,50.339697
726.831280,50.376061
726.910231,50.594242
726.989155,50.848788
727.068051,50.885152
727.146920,50.921515
727.225761,50.594242
727.304574,50.085152
727.383359,49.612424
727.462117,49.539697
727.540847,49.394242
727.619550,49.285152
727.698224,49.157879
727.776871,49.376061
727.855491,49.085152
727.934083,49.030606
728.012647,49.448788
728.091183,49.376061
728.169692,49.939697
728.248173,49.957879
728.326627,50.394242
728.405052,50.376061
728.483450,50.485152
728.561821,50.448788
728.640163,50.739697
728.718479,50.739697
728.796766,50.539697
728.875025,50.412424
728.953257,50.466970
729.031462,49.812424
729.109638,50.157879
729.187787,50.157879
729.265908,50.030606
729.344002,50.085152
729.422068,49.648788
729.500106,49.630606
729.578116,49.357879
729.656099,49.266970
729.734054,48.666970
729.811981,48.757879
729.889881,49.157879
729.967753,48.921515
730.045597,48.357879
730.123414,48.503333
730.201202,48.466970
730.278963,48.812424
730.356697,48.539697
730.434402,48.576061
730.512080,48.539697
730.589731,48.994242
730.667353,49.157879
730.744948,48.957879
730.822515,48.903333
730.900054,49.012424
730.977566,48.666970
731.055050,48.848788
731.132506,48.721515
731.209935,48.630606
731.287335,48.612424
731.364708,48.357879
731.442054,47.903333
731.519371,47.285152
731.596661,46.812424
731.673923,46.339697
731.751158,45.921515
731.828364,46.212424
731.905543,45.685152
731.982694,45.485152
732.059818,45.576061
732.136913,45.594242
732.213981,45.576061
732.291022,45.721515
732.368034,45.939697
732.445019,45.939697
732.521976,46.157879
732.598905,46.394242
732.675806,45.921515
732.752680,45.866970
732.829526,45.557879
732.906344,44.957879
732.983135,44.539697
733.059898,44.921515
733.136633,44.812424
733.213340,44.648788
733.290019,44.630606
733.366671,44.521515
733.443295,44.103333
733.519891,44.230606
733.596459,44.339697
733.673000,44.376061
733.749513,44.139697
733.825998,44.448788
733.902455,44.357879
733.978885,44.012424
734.055287,43.885152
734.131661,43.376061
734.208007,43.212424
734.284326,43.303333
734.360616,43.176061
734.436879,42.648788
734.513114,42.866970
734.589322,43.303333
734.665501,42.976061
734.741653,42.557879
734.817777,42.903333
734.893873,43.230606
734.969942,43.921515
735.045982,43.866970
735.121995,43.939697
735.197980,43.866970
735.273938,44.830606
735.349867,44.666970
735.425769,44.721515
735.501643,44.921515
735.577489,45.266970
735.653307,45.048788
735.729098,45.157879
735.804860,45.285152
735.880595,45.539697
735.956302,45.666970
736.031982,45.485152
736.107633,44.939697
736.183257,45.303333
736.258853,45.339697
736.334421,44.939697
736.409961,44.412424
736.485474,44.594242
736.560958,43.830606
736.636415,43.648788
736.711844,42.903333
736.787245,42.448788
736.862619,42.303333
736.937964,42.394242
737.013282,42.285152
737.088572,41.903333
737.163834,42.339697
737.239068,43.339697
737.314275,42.885152
737.389453,43.121515
737.464604,43.212424
737.539727,43.630606
737.614822,43.794242
737.689890,44.376061
737.764929,44.430606
737.839941,44.176061
737.914925,44.121515
737.989881,44.121515
738.064809,43.703333
738.139709,44.157879
738.214581,43.994242
738.289426,43.339697
738.364243,43.630606
738.439032,43.485152
738.513793,43.339697
738.588526,42.776061
738.663231,42.503333
738.737909,42.485152
738.812559,42.012424
738.887180,41.630606
738.961774,41.776061
739.036340,41.848788
739.110879,42.594242
739.185389,42.994242
739.259872,43.176061
739.334326,42.848788
739.408753,42.594242
739.483152,42.794242
739.557523,43.066970
739.631866,43.539697
739.706182,43.485152
739.780469,42.957879
739.854729,43.139697
739.928961,42.739697
740.003165,42.357879
740.077341,42.048788
740.151489,42.539697
740.225609,42.885152
740.299701,42.976061
740.373766,43.030606
740.447802,43.121515
740.521811,42.939697
740.595792,43.103333
740.669745,43.157879
740.743670,42.885152
740.817567,42.721515
740.891437,42.885152
740.965278,42.576061
741.039092,42.248788
741.112877,41.903333
741.186635,41.576061
741.260365,41.085152
741.334067,41.212424
741.407741,41.103333
741.481387,41.266970
741.555006,41.466970
741.628596,42.030606
741.702159,42.176061
741.775693,42.485152
741.849200,43.157879
741.922679,43.794242
741.996130,44.266970
742.069552,45.176061
742.142948,45.939697
742.216315,46.576061
742.289654,46.939697
742.362965,47.303333
742.436249,46.994242
742.509504,47.339697
742.582732,47.757879
742.655932,47.685152
742.729103,47.503333
742.802247,47.557879
742.875363,47.176061
742.948451,46.776061
743.021511,46.721515
743.094543,46.212424
743.167548,45.812424
743.240524,45.248788
743.313472,45.230606
743.386393,44.521515
743.459285,44.303333
743.532150,44.103333
743.604986,43.594242
743.677795,43.285152
743.750576,42.830606
743.823329,42.321515
743.896054,42.012424
743.968751,41.739697
744.041420,42.448788
744.114061,41.503333
744.186674,41.376061
744.259259,41.376061
744.331816,41.303333
744.404346,41.048788
744.476847,40.812424
744.549320,40.957879
744.621766,40.757879
744.694183,40.976061
744.766573,41.248788
744.838934,40.448788
744.911268,41.066970
744.983574,40.939697
745.055851,40.848788
745.128101,40.885152
745.200323,41.339697
745.272517,41.485152
745.344683,41.630606
745.416820,42.212424
745.488930,42.703333
745.561012,42.776061
745.633066,43.357879
745.705092,43.176061
745.777090,43.357879
745.849061,43.303333
745.921003,43.539697
745.992917,43.176061
746.064803,43.794242
746.136661,43.939697
746.208491,43.703333
746.280294,43.830606
746.352068,43.903333
746.423814,44.030606
746.495532,44.303333
746.567223,44.266970
746.638885,44.576061
746.710519,44.194242
746.782126,44.503333
746.853704,43.794242
746.925254,43.466970
746.996777,43.685152
747.068271,43.539697
747.139737,43.612424
747.211176,43.139697
747.282586,42.757879
747.353968,42.412424
747.425323,41.848788
747.496649,42.648788
747.567947,42.976061
747.639218,43.012424
747.710460,42.976061
747.781675,42.721515
747.852861,41.685152
747.924019,41.594242
747.995149,41.812424
748.066252,41.721515
748.137326,42.066970
748.208372,42.285152
748.279391,41.194242
748.350381,40.557879
748.421343,40.103333
748.492277,39.739697
748.563183,39.412424
748.634062,39.576061
748.704912,38.866970
748.775734,38.503333
748.846528,38.776061
748.917294,38.539697
748.988032,38.703333
749.058742,38.903333
749.129424,38.576061
749.200078,38.976061
749.270704,39.339697
749.341302,39.321515
749.411872,39.648788
749.482413,40.085152
749.552927,40.339697
749.623413,40.248788
749.693871,40.066970
749.764300,40.139697
749.834702,39.903333
749.905075,40.430606
