#44_cooling_EuGa4_Mar07_23.dat.txt
#Tue, Mar 7, 2023, 12:56 PM
#WL (nm), Int (cts)
674.996352,72.596061
675.091533,72.741515
675.186688,72.959697
675.281816,73.250606
675.376916,73.159697
675.471990,72.596061
675.567037,72.468788
675.662057,72.559697
675.757051,72.141515
675.852017,71.505152
675.946956,71.777879
676.041869,72.286970
676.136754,71.996061
676.231613,71.668788
676.326444,71.341515
676.421249,71.432424
676.516027,71.232424
676.610778,71.650606
676.705502,71.432424
676.800199,71.486970
676.894869,71.923333
676.989513,71.577879
677.084129,71.468788
677.178718,71.941515
677.273281,71.723333
677.367816,71.759697
677.462325,71.796061
677.556807,72.250606
677.651261,72.123333
677.745689,72.723333
677.840090,73.268788
677.934464,73.341515
678.028811,73.396061
678.123131,73.450606
678.217424,73.432424
678.311690,73.868788
678.405930,74.341515
678.500142,74.486970
678.594327,74.541515
678.688486,74.505152
678.782617,74.614242
678.876722,73.632424
678.970799,73.886970
679.064850,74.086970
679.158873,74.341515
679.252870,74.796061
679.346840,74.396061
679.440783,74.159697
679.534698,75.596061
679.628587,75.577879
679.722449,76.650606
679.816284,76.723333
679.910092,77.814242
680.003873,78.123333
680.097627,79.086970
680.191354,79.286970
680.285054,79.268788
680.378727,80.505152
680.472373,80.559697
680.565993,79.286970
680.659585,79.941515
680.753150,79.086970
680.846688,78.814242
680.940199,78.759697
681.033684,78.286970
681.127141,77.505152
681.220571,77.359697
681.313975,76.923333
681.407351,76.214242
681.500700,76.086970
681.594023,80.214242
681.687318,79.686970
681.780587,79.268788
681.873828,78.796061
681.967042,78.486970
682.060230,78.159697
682.153390,77.868788
682.246524,77.305152
682.339630,77.105152
682.432710,76.977879
682.525762,76.777879
682.618788,72.396061
682.711786,72.286970
682.804757,72.759697
682.897702,73.014242
682.990619,73.159697
683.083510,73.214242
683.176373,73.468788
683.269210,73.759697
683.362019,73.723333
683.454801,73.650606
683.547557,73.614242
683.640285,73.832424
683.732986,73.923333
683.825661,74.050606
683.918308,74.250606
684.010928,74.050606
684.103522,74.341515
684.196088,74.014242
684.288627,73.741515
684.381139,74.377879
684.473624,74.632424
684.566082,74.632424
684.658514,74.614242
684.750918,75.050606
684.843295,75.468788
684.935645,75.741515
685.027968,75.650606
685.120264,75.468788
685.212533,76.432424
685.304774,76.996061
685.396989,77.068788
685.489177,77.577879
685.581338,78.596061
685.673471,79.341515
685.765578,79.632424
685.857658,80.123333
685.949710,81.305152
686.041736,82.432424
686.133734,84.268788
686.225706,86.232424
686.317650,88.577879
686.409567,91.177879
686.501458,94.177879
686.593321,97.686970
686.685157,100.705152
686.776966,104.814242
686.868748,108.432424
686.960503,112.196061
687.052231,116.068788
687.143932,119.105152
687.235606,121.323333
687.327252,124.032424
687.418872,125.396061
687.510465,126.250606
687.602030,125.505152
687.693569,125.141515
687.785080,123.686970
687.876564,121.523333
687.968021,118.832424
688.059452,115.723333
688.150855,112.868788
688.242231,110.214242
688.333580,105.941515
688.424901,102.468788
688.516196,98.668788
688.607464,95.214242
688.698704,92.196061
688.789918,88.959697
688.881104,86.523333
688.972264,83.941515
689.063396,81.905152
689.154501,79.286970
689.245579,76.468788
689.336630,75.032424
689.427654,73.632424
689.518651,72.341515
689.609620,72.032424
689.700563,71.741515
689.791478,71.177879
689.882367,70.668788
689.973228,71.559697
690.064062,72.268788
690.154869,73.432424
690.245649,74.559697
690.336402,75.959697
690.427128,77.486970
690.517826,78.341515
690.608498,78.050606
690.699142,77.032424
690.789759,76.723333
690.880350,76.668788
690.970913,74.905152
691.061449,73.359697
691.151957,72.050606
691.242439,70.741515
691.332894,69.159697
691.423321,67.559697
691.513721,66.323333
691.604095,66.359697
691.694441,66.832424
691.784760,67.123333
691.875051,67.523333
691.965316,68.214242
692.055554,68.905152
692.145764,69.577879
692.235947,70.432424
692.326104,71.414242
692.416233,72.741515
692.506334,75.068788
692.596409,77.668788
692.686457,80.850606
692.776477,84.941515
692.866471,89.941515
692.956437,96.014242
693.046376,103.032424
693.136288,110.723333
693.226172,118.414242
693.316030,125.377879
693.405860,132.268788
693.495664,137.486970
693.585440,142.996061
693.675189,149.686970
693.764911,165.523333
693.854605,195.032424
693.944273,240.814242
694.033913,294.614242
694.123526,345.341515
694.213112,386.396061
694.302671,413.323333
694.392203,427.577879
694.481707,433.650606
694.571185,434.450606
694.660635,431.705152
694.750058,418.450606
694.839454,391.486970
694.928822,347.686970
695.018164,298.541515
695.107478,260.196061
695.196765,250.741515
695.286025,290.341515
695.375258,381.196061
695.464464,516.268788
695.553642,668.741515
695.642793,798.341515
695.731918,886.923333
695.821014,935.468788
695.910084,959.086970
695.999127,966.596061
696.088142,958.850606
696.177130,926.868788
696.266091,858.014242
696.355025,748.559697
696.443931,603.723333
696.532811,445.086970
696.621663,311.032424
696.710488,218.014242
696.799286,163.596061
696.888056,133.614242
696.976799,115.414242
697.065516,103.996061
697.154205,97.341515
697.242866,92.414242
697.331501,89.341515
697.420108,86.577879
697.508688,84.596061
697.597241,82.250606
697.685767,80.632424
697.774265,78.814242
697.862737,77.741515
697.951181,76.832424
698.039598,76.032424
698.127987,74.923333
698.216350,74.796061
698.304685,74.596061
698.392993,73.886970
698.481274,73.068788
698.569527,72.632424
698.657753,72.996061
698.745953,73.250606
698.834124,72.705152
698.922269,72.959697
699.010386,73.268788
699.098477,74.359697
699.186539,75.359697
699.274575,75.996061
699.362584,76.886970
699.450565,77.559697
699.538519,78.159697
699.626445,77.905152
699.714345,78.014242
699.802217,78.959697
699.890062,79.032424
699.977880,78.486970
700.065671,77.796061
700.153434,76.468788
700.241170,75.559697
700.328879,74.886970
700.416560,74.759697
700.504214,74.777879
700.591841,74.305152
700.679441,73.850606
700.767014,73.396061
700.854559,72.832424
700.942077,73.068788
701.029568,73.923333
701.117031,75.832424
701.204467,78.414242
701.291876,82.341515
701.379258,86.050606
701.466612,89.923333
701.553939,93.450606
701.641239,96.377879
701.728512,98.450606
701.815757,100.305152
701.902975,101.596061
701.990166,101.923333
702.077330,101.232424
702.164466,99.541515
702.251575,96.359697
702.338657,93.232424
702.425711,89.668788
702.512738,87.396061
702.599738,85.759697
702.686710,85.650606
702.773656,86.177879
702.860574,87.377879
702.947464,88.959697
703.034328,91.850606
703.121164,97.105152
703.207973,105.596061
703.294754,116.923333
703.381509,130.032424
703.468235,143.159697
703.554935,154.341515
703.641607,162.359697
703.728253,167.832424
703.814870,170.705152
703.901461,172.014242
703.988024,171.359697
704.074560,167.723333
704.161068,160.723333
704.247549,149.923333
704.334003,138.268788
704.420430,125.723333
704.506829,114.686970
704.593201,105.996061
704.679546,101.032424
704.765863,98.377879
704.852153,97.268788
704.938416,97.686970
705.024652,99.396061
705.110860,102.432424
705.197040,105.868788
705.283194,109.523333
705.369320,114.486970
705.455419,119.686970
705.541490,125.541515
705.627534,131.886970
705.713551,138.796061
705.799541,145.723333
705.885503,153.123333
705.971438,161.068788
706.057345,169.559697
706.143225,178.286970
706.229078,187.541515
706.314904,196.577879
706.400702,207.341515
706.486473,217.086970
706.572216,226.196061
706.657932,234.468788
706.743621,243.377879
706.829282,250.686970
706.914917,256.905152
707.000523,261.614242
707.086103,266.086970
707.171655,268.814242
707.257179,270.686970
707.342677,270.141515
707.428147,268.923333
707.513589,265.814242
707.599005,261.341515
707.684393,254.523333
707.769753,247.268788
707.855086,239.905152
707.940392,233.396061
708.025671,227.796061
708.110922,224.250606
708.196146,223.014242
708.281342,225.886970
708.366511,232.614242
708.451653,241.868788
708.536767,254.014242
708.621854,268.196061
708.706913,282.486970
708.791946,295.541515
708.876950,305.486970
708.961928,311.141515
709.046878,311.759697
709.131800,307.141515
709.216696,296.814242
709.301564,281.032424
709.386404,263.123333
709.471217,242.123333
709.556003,220.505152
709.640761,199.505152
709.725492,179.396061
709.810196,160.523333
709.894872,145.323333
709.979521,133.686970
710.064142,124.741515
710.148736,118.086970
710.233303,113.614242
710.317842,109.850606
710.402354,108.286970
710.486838,106.250606
710.571295,104.923333
710.655725,104.214242
710.740127,104.468788
710.824502,105.432424
710.908849,107.086970
710.993169,109.868788
711.077462,114.214242
711.161727,120.323333
711.245965,128.359697
711.330175,137.486970
711.414358,148.977879
711.498514,161.159697
711.582642,173.723333
711.666743,188.050606
711.750816,202.523333
711.834862,216.323333
711.918880,228.686970
712.002871,239.541515
712.086835,247.614242
712.170771,252.468788
712.254680,254.159697
712.338561,252.868788
712.422415,249.414242
712.506241,242.777879
712.590040,233.086970
712.673812,220.268788
712.757556,206.123333
712.841273,190.977879
712.924962,175.886970
713.008624,160.668788
713.092258,146.832424
713.175865,133.468788
713.259445,121.141515
713.342997,110.032424
713.426522,101.668788
713.510019,94.396061
713.593489,88.977879
713.676931,84.268788
713.760346,81.559697
713.843733,78.377879
713.927093,76.414242
714.010426,74.923333
714.093731,73.414242
714.177008,72.432424
714.260258,71.341515
714.343481,70.232424
714.426676,69.250606
714.509844,68.923333
714.592984,69.105152
714.676097,68.705152
714.759183,69.268788
714.842240,69.977879
714.925271,70.214242
715.008274,71.268788
715.091249,72.068788
715.174197,72.723333
715.257118,73.450606
715.340011,73.723333
715.422877,74.250606
715.505715,73.923333
715.588525,73.868788
715.671309,73.486970
715.754064,72.941515
715.836793,72.614242
715.919493,72.359697
716.002167,71.668788
716.084812,71.268788
716.167431,70.559697
716.250021,70.796061
716.332585,70.050606
716.415121,70.286970
716.497629,70.377879
716.580110,70.177879
716.662563,70.341515
716.744989,69.941515
716.827387,69.359697
716.909758,69.614242
716.992102,69.686970
717.074417,69.977879
717.156706,69.759697
717.238967,69.959697
717.321200,69.923333
717.403406,69.977879
717.485584,69.614242
717.567735,69.068788
717.649858,69.250606
717.731954,69.250606
717.814023,68.759697
717.896063,67.868788
717.978077,66.996061
718.060062,66.632424
718.142021,66.286970
718.223951,65.977879
718.305855,65.468788
718.387730,65.668788
718.469579,65.396061
718.551399,65.250606
718.633192,65.232424
718.714958,64.596061
718.796696,65.105152
718.878407,65.268788
718.960090,64.832424
719.041745,64.559697
719.123373,63.777879
719.204974,63.668788
719.286546,63.814242
719.368092,63.559697
719.449610,63.323333
719.531100,63.086970
719.612563,63.341515
719.693998,62.650606
719.775406,62.432424
719.856786,62.068788
719.938138,61.432424
720.019463,61.468788
720.100761,61.105152
720.182031,60.396061
720.263273,60.305152
720.344488,59.268788
720.425675,58.868788
720.506835,58.868788
720.587967,59.014242
720.669072,58.577879
720.750149,58.977879
720.831199,59.432424
720.912220,59.850606
720.993215,60.305152
721.074182,60.250606
721.155121,60.450606
721.236033,60.923333
721.316917,60.759697
721.397773,60.432424
721.478602,59.814242
721.559404,59.723333
721.640178,59.286970
721.720924,58.686970
721.801643,57.796061
721.882334,57.141515
721.962998,56.814242
722.043634,56.377879
722.124242,55.959697
722.204823,55.832424
722.285376,55.486970
722.365902,55.505152
722.446400,55.614242
722.526870,55.486970
722.607313,55.741515
722.687729,55.977879
722.768116,55.614242
722.848477,55.868788
722.928809,56.032424
723.009114,56.032424
723.089391,56.068788
723.169641,56.396061
723.249863,55.905152
723.330058,55.759697
723.410225,55.868788
723.490364,55.741515
723.570476,55.705152
723.650560,56.177879
723.730617,55.705152
723.810646,55.814242
723.890647,55.414242
723.970621,55.468788
724.050567,55.177879
724.130486,55.268788
724.210377,55.032424
724.290240,54.632424
724.370076,54.268788
724.449884,53.741515
724.529665,53.396061
724.609417,53.432424
724.689143,52.632424
724.768840,52.759697
724.848510,53.268788
724.928153,53.050606
725.007767,52.941515
725.087355,52.923333
725.166914,52.614242
725.246446,52.741515
725.325950,52.759697
725.405427,52.468788
725.484876,52.396061
725.564297,52.450606
725.643691,52.159697
725.723057,51.286970
725.802396,51.523333
725.881706,51.468788
725.960990,51.505152
726.040245,51.359697
726.119473,51.577879
726.198673,51.614242
726.277846,51.559697
726.356991,51.577879
726.436108,51.614242
726.515198,52.359697
726.594260,52.232424
726.673294,52.086970
726.752301,52.068788
726.831280,52.032424
726.910231,52.086970
726.989155,51.741515
727.068051,51.596061
727.146920,51.777879
727.225761,51.414242
727.304574,51.050606
727.383359,50.323333
727.462117,50.177879
727.540847,49.723333
727.619550,49.759697
727.698224,49.268788
727.776871,49.323333
727.855491,49.468788
727.934083,49.359697
728.012647,49.268788
728.091183,49.196061
728.169692,49.959697
728.248173,49.759697
728.326627,50.268788
728.405052,50.505152
728.483450,50.486970
728.561821,50.832424
728.640163,50.905152
728.718479,50.977879
728.796766,50.941515
728.875025,50.777879
728.953257,50.705152
729.031462,49.923333
729.109638,50.068788
729.187787,49.996061
729.265908,50.032424
729.344002,50.159697
729.422068,49.414242
729.500106,49.941515
729.578116,49.414242
729.656099,49.159697
729.734054,48.741515
729.811981,48.832424
729.889881,49.214242
729.967753,49.123333
730.045597,48.541515
730.123414,48.377879
730.201202,48.123333
730.278963,48.450606
730.356697,48.105152
730.434402,48.286970
730.512080,48.486970
730.589731,48.705152
730.667353,48.741515
730.744948,48.541515
730.822515,48.541515
730.900054,48.941515
730.977566,48.232424
731.055050,48.668788
731.132506,48.668788
731.209935,48.850606
731.287335,48.432424
731.364708,47.959697
731.442054,48.032424
731.519371,47.614242
731.596661,47.359697
731.673923,47.196061
731.751158,46.686970
731.828364,47.032424
731.905543,46.341515
731.982694,46.032424
732.059818,45.414242
732.136913,45.596061
732.213981,45.523333
732.291022,45.177879
732.368034,45.377879
732.445019,45.286970
732.521976,45.196061
732.598905,45.268788
732.675806,45.250606
732.752680,45.414242
732.829526,45.086970
732.906344,45.159697
732.983135,44.723333
733.059898,45.032424
733.136633,45.141515
733.213340,44.959697
733.290019,44.886970
733.366671,44.941515
733.443295,44.577879
733.519891,44.323333
733.596459,44.232424
733.673000,44.250606
733.749513,43.614242
733.825998,44.050606
733.902455,44.214242
733.978885,43.650606
734.055287,43.414242
734.131661,43.159697
734.208007,43.068788
734.284326,43.141515
734.360616,43.541515
734.436879,43.032424
734.513114,43.577879
734.589322,43.868788
734.665501,43.468788
734.741653,43.032424
734.817777,43.596061
734.893873,43.941515
734.969942,44.432424
735.045982,44.414242
735.121995,44.486970
735.197980,43.905152
735.273938,44.796061
735.349867,44.468788
735.425769,44.632424
735.501643,44.650606
735.577489,44.923333
735.653307,44.505152
735.729098,44.468788
735.804860,44.432424
735.880595,44.577879
735.956302,44.850606
736.031982,44.777879
736.107633,44.250606
736.183257,44.668788
736.258853,44.850606
736.334421,44.650606
736.409961,44.286970
736.485474,44.305152
736.560958,44.341515
736.636415,44.268788
736.711844,43.596061
736.787245,43.286970
736.862619,43.377879
736.937964,43.414242
737.013282,43.396061
737.088572,43.159697
737.163834,43.377879
737.239068,44.141515
737.314275,43.996061
737.389453,43.541515
737.464604,43.359697
737.539727,43.850606
737.614822,43.814242
737.689890,44.159697
737.764929,44.359697
737.839941,43.832424
737.914925,43.705152
737.989881,43.505152
738.064809,43.577879
738.139709,43.705152
738.214581,43.650606
738.289426,43.559697
738.364243,43.832424
738.439032,43.832424
738.513793,43.977879
738.588526,43.668788
738.663231,43.614242
738.737909,43.359697
738.812559,43.377879
738.887180,42.905152
738.961774,43.141515
739.036340,43.141515
739.110879,43.159697
739.185389,43.214242
739.259872,43.159697
739.334326,42.723333
739.408753,42.232424
739.483152,42.305152
739.557523,42.668788
739.631866,42.832424
739.706182,42.723333
739.780469,42.432424
739.854729,42.505152
739.928961,42.432424
740.003165,41.741515
740.077341,41.268788
740.151489,41.905152
740.225609,42.341515
740.299701,42.432424
740.373766,42.377879
740.447802,42.432424
740.521811,42.450606
740.595792,42.141515
740.669745,42.414242
740.743670,42.268788
740.817567,42.468788
740.891437,42.577879
740.965278,41.741515
741.039092,41.723333
741.112877,41.323333
741.186635,41.268788
741.260365,41.268788
741.334067,41.196061
741.407741,41.559697
741.481387,41.686970
741.555006,42.050606
741.628596,42.414242
741.702159,43.268788
741.775693,43.814242
741.849200,44.086970
741.922679,44.759697
741.996130,45.196061
742.069552,45.614242
742.142948,46.305152
742.216315,46.832424
742.289654,47.396061
742.362965,47.614242
742.436249,47.814242
742.509504,47.941515
742.582732,48.377879
742.655932,48.105152
742.729103,47.705152
742.802247,47.632424
742.875363,47.359697
742.948451,47.050606
743.021511,46.850606
743.094543,46.286970
743.167548,46.068788
743.240524,45.396061
743.313472,44.996061
743.386393,44.523333
743.459285,44.905152
743.532150,45.232424
743.604986,44.759697
743.677795,44.577879
743.750576,44.068788
743.823329,43.468788
743.896054,43.105152
743.968751,42.596061
744.041420,42.832424
744.114061,42.341515
744.186674,42.014242
744.259259,41.596061
744.331816,41.432424
744.404346,41.268788
744.476847,40.996061
744.549320,41.068788
744.621766,41.559697
744.694183,41.832424
744.766573,42.159697
744.838934,42.014242
744.911268,42.232424
744.983574,42.268788
745.055851,42.523333
745.128101,42.741515
745.200323,43.068788
745.272517,43.523333
745.344683,43.541515
745.416820,43.577879
745.488930,44.050606
745.561012,44.250606
745.633066,44.614242
745.705092,44.505152
745.777090,44.814242
745.849061,44.596061
745.921003,44.577879
745.992917,44.414242
746.064803,44.868788
746.136661,45.086970
746.208491,45.268788
746.280294,45.214242
746.352068,45.159697
746.423814,45.250606
746.495532,45.359697
746.567223,45.014242
746.638885,45.359697
746.710519,45.086970
746.782126,45.232424
746.853704,44.341515
746.925254,44.105152
746.996777,43.996061
747.068271,43.850606
747.139737,43.741515
747.211176,43.232424
747.282586,43.141515
747.353968,43.032424
747.425323,42.468788
747.496649,42.868788
747.567947,43.159697
747.639218,43.050606
747.710460,42.977879
747.781675,43.050606
747.852861,42.723333
747.924019,43.159697
747.995149,43.559697
748.066252,43.414242
748.137326,43.505152
748.208372,43.396061
748.279391,42.559697
748.350381,41.886970
748.421343,41.941515
748.492277,41.777879
748.563183,41.177879
748.634062,41.086970
748.704912,40.214242
748.775734,39.668788
748.846528,39.886970
748.917294,39.814242
748.988032,40.123333
749.058742,40.432424
749.129424,40.359697
749.200078,40.796061
749.270704,40.814242
749.341302,41.105152
749.411872,41.177879
749.482413,41.705152
749.552927,42.050606
749.623413,41.905152
749.693871,41.832424
749.764300,41.614242
749.834702,41.668788
749.905075,41.796061
