#49_cooling_EuGa4_Mar07_23.dat.txt
#Tue, Mar 7, 2023, 1:24 PM
#WL (nm), Int (cts)
674.996352,72.985606
675.091533,73.185606
675.186688,73.221970
675.281816,73.440152
675.376916,73.112879
675.471990,73.640152
675.567037,73.403788
675.662057,73.421970
675.757051,73.367424
675.852017,73.240152
675.946956,73.331061
676.041869,73.185606
676.136754,73.058333
676.231613,72.440152
676.326444,72.367424
676.421249,72.640152
676.516027,71.640152
676.610778,71.912879
676.705502,72.058333
676.800199,71.949242
676.894869,72.131061
676.989513,72.440152
677.084129,72.840152
677.178718,73.149242
677.273281,73.258333
677.367816,73.185606
677.462325,73.149242
677.556807,73.821970
677.651261,74.149242
677.745689,74.349242
677.840090,74.621970
677.934464,74.294697
678.028811,73.876515
678.123131,74.021970
678.217424,73.949242
678.311690,74.094697
678.405930,74.603788
678.500142,74.949242
678.594327,75.021970
678.688486,75.258333
678.782617,75.167424
678.876722,74.567424
678.970799,74.967424
679.064850,75.240152
679.158873,75.367424
679.252870,75.821970
679.346840,75.840152
679.440783,75.531061
679.534698,76.603788
679.628587,76.658333
679.722449,76.821970
679.816284,77.076515
679.910092,77.421970
680.003873,77.567424
680.097627,78.494697
680.191354,78.476515
680.285054,78.385606
680.378727,79.094697
680.472373,79.167424
680.565993,78.040152
680.659585,77.967424
680.753150,77.458333
680.846688,77.294697
680.940199,77.567424
681.033684,77.421970
681.127141,76.840152
681.220571,76.931061
681.313975,76.858333
681.407351,76.440152
681.500700,76.549242
681.594023,81.349242
681.687318,80.967424
681.780587,80.840152
681.873828,80.585606
681.967042,80.131061
682.060230,79.840152
682.153390,79.349242
682.246524,78.876515
682.339630,78.203788
682.432710,77.912879
682.525762,77.421970
682.618788,72.312879
682.711786,72.640152
682.804757,72.585606
682.897702,72.567424
682.990619,72.876515
683.083510,73.003788
683.176373,73.312879
683.269210,73.967424
683.362019,74.258333
683.454801,74.458333
683.547557,74.203788
683.640285,74.040152
683.732986,74.131061
683.825661,74.276515
683.918308,74.458333
684.010928,74.312879
684.103522,74.203788
684.196088,73.894697
684.288627,73.403788
684.381139,74.021970
684.473624,74.331061
684.566082,74.785606
684.658514,75.221970
684.750918,75.349242
684.843295,75.767424
684.935645,76.240152
685.027968,76.221970
685.120264,76.494697
685.212533,76.912879
685.304774,77.203788
685.396989,77.112879
685.489177,77.494697
685.581338,78.276515
685.673471,79.112879
685.765578,79.421970
685.857658,80.331061
685.949710,81.331061
686.041736,82.567424
686.133734,84.585606
686.225706,86.531061
686.317650,88.931061
686.409567,91.676515
686.501458,94.440152
686.593321,97.403788
686.685157,100.712879
686.776966,105.112879
686.868748,108.803788
686.960503,112.203788
687.052231,115.985606
687.143932,118.676515
687.235606,121.621970
687.327252,124.149242
687.418872,125.494697
687.510465,126.494697
687.602030,126.658333
687.693569,125.785606
687.785080,124.112879
687.876564,121.785606
687.968021,119.494697
688.059452,116.294697
688.150855,113.531061
688.242231,110.712879
688.333580,106.367424
688.424901,102.785606
688.516196,98.931061
688.607464,95.440152
688.698704,92.367424
688.789918,89.003788
688.881104,86.658333
688.972264,83.749242
689.063396,81.767424
689.154501,79.421970
689.245579,76.512879
689.336630,75.331061
689.427654,74.112879
689.518651,73.221970
689.609620,72.131061
689.700563,71.549242
689.791478,71.276515
689.882367,70.694697
689.973228,71.549242
690.064062,72.185606
690.154869,72.821970
690.245649,74.040152
690.336402,75.476515
690.427128,76.967424
690.517826,77.403788
690.608498,77.640152
690.699142,77.149242
690.789759,76.731061
690.880350,76.585606
690.970913,74.785606
691.061449,73.003788
691.151957,71.767424
691.242439,70.476515
691.332894,68.494697
691.423321,66.621970
691.513721,65.367424
691.604095,65.167424
691.694441,65.712879
691.784760,65.585606
691.875051,65.931061
691.965316,66.694697
692.055554,67.294697
692.145764,67.549242
692.235947,68.367424
692.326104,69.240152
692.416233,70.549242
692.506334,73.076515
692.596409,75.658333
692.686457,78.203788
692.776477,82.949242
692.866471,88.149242
692.956437,93.967424
693.046376,101.058333
693.136288,108.531061
693.226172,115.585606
693.316030,122.494697
693.405860,128.712879
693.495664,133.640152
693.585440,138.640152
693.675189,144.894697
693.764911,157.840152
693.854605,183.458333
693.944273,221.003788
694.033913,262.694697
694.123526,301.240152
694.213112,332.421970
694.302671,352.931061
694.392203,362.367424
694.481707,365.967424
694.571185,365.621970
694.660635,361.767424
694.750058,349.603788
694.839454,324.440152
694.928822,287.858333
695.018164,249.803788
695.107478,225.221970
695.196765,229.458333
695.286025,280.312879
695.375258,381.603788
695.464464,520.440152
695.553642,668.694697
695.642793,795.040152
695.731918,881.931061
695.821014,930.694697
695.910084,955.658333
695.999127,963.912879
696.088142,954.767424
696.177130,919.058333
696.266091,845.785606
696.355025,731.767424
696.443931,585.312879
696.532811,432.203788
696.621663,302.803788
696.710488,212.349242
696.799286,159.512879
696.888056,128.949242
696.976799,111.185606
697.065516,99.876515
697.154205,93.621970
697.242866,88.167424
697.331501,84.640152
697.420108,82.312879
697.508688,80.712879
697.597241,78.694697
697.685767,77.712879
697.774265,76.021970
697.862737,74.894697
697.951181,73.931061
698.039598,72.858333
698.127987,72.003788
698.216350,72.058333
698.304685,71.803788
698.392993,71.131061
698.481274,70.785606
698.569527,70.349242
698.657753,70.203788
698.745953,69.731061
698.834124,69.512879
698.922269,69.203788
699.010386,69.494697
699.098477,69.931061
699.186539,70.040152
699.274575,70.512879
699.362584,70.749242
699.450565,70.767424
699.538519,71.076515
699.626445,70.658333
699.714345,70.894697
699.802217,71.112879
699.890062,71.712879
699.977880,70.985606
700.065671,70.658333
700.153434,70.512879
700.241170,69.931061
700.328879,70.276515
700.416560,70.440152
700.504214,71.021970
700.591841,71.349242
700.679441,72.312879
700.767014,72.949242
700.854559,72.803788
700.942077,73.876515
701.029568,75.240152
701.117031,77.385606
701.204467,80.749242
701.291876,84.858333
701.379258,89.112879
701.466612,92.949242
701.553939,96.912879
701.641239,99.512879
701.728512,101.876515
701.815757,103.803788
701.902975,105.421970
701.990166,105.531061
702.077330,104.549242
702.164466,102.767424
702.251575,99.203788
702.338657,95.549242
702.425711,91.967424
702.512738,89.403788
702.599738,87.512879
702.686710,87.531061
702.773656,88.567424
702.860574,89.621970
702.947464,92.331061
703.034328,96.731061
703.121164,104.094697
703.207973,116.076515
703.294754,131.440152
703.381509,149.094697
703.468235,166.076515
703.554935,181.476515
703.641607,192.185606
703.728253,199.549242
703.814870,203.749242
703.901461,204.967424
703.988024,203.403788
704.074560,197.440152
704.161068,186.985606
704.247549,172.767424
704.334003,156.440152
704.420430,140.112879
704.506829,124.949242
704.593201,113.549242
704.679546,106.021970
704.765863,101.840152
704.852153,99.585606
704.938416,99.585606
705.024652,100.821970
705.110860,103.367424
705.197040,106.731061
705.283194,110.585606
705.369320,114.785606
705.455419,119.767424
705.541490,125.567424
705.627534,131.294697
705.713551,138.076515
705.799541,145.040152
705.885503,152.349242
705.971438,160.585606
706.057345,169.131061
706.143225,178.003788
706.229078,187.276515
706.314904,196.894697
706.400702,207.476515
706.486473,217.221970
706.572216,226.276515
706.657932,235.640152
706.743621,244.821970
706.829282,252.876515
706.914917,260.003788
707.000523,266.349242
707.086103,271.603788
707.171655,275.931061
707.257179,278.876515
707.342677,280.167424
707.428147,280.421970
707.513589,280.112879
707.599005,276.349242
707.684393,270.949242
707.769753,264.094697
707.855086,257.149242
707.940392,249.531061
708.025671,243.003788
708.110922,237.785606
708.196146,235.458333
708.281342,236.349242
708.366511,241.221970
708.451653,247.712879
708.536767,258.749242
708.621854,270.803788
708.706913,284.076515
708.791946,296.621970
708.876950,306.021970
708.961928,311.731061
709.046878,312.058333
709.131800,307.385606
709.216696,297.131061
709.301564,281.440152
709.386404,263.803788
709.471217,242.240152
709.556003,221.021970
709.640761,199.876515
709.725492,178.840152
709.810196,160.731061
709.894872,145.403788
709.979521,133.985606
710.064142,125.185606
710.148736,119.058333
710.233303,114.458333
710.317842,111.076515
710.402354,109.331061
710.486838,107.167424
710.571295,105.476515
710.655725,104.440152
710.740127,104.276515
710.824502,105.094697
710.908849,106.676515
710.993169,109.203788
711.077462,113.131061
711.161727,119.203788
711.245965,126.985606
711.330175,136.040152
711.414358,148.149242
711.498514,160.349242
711.582642,173.494697
711.666743,188.149242
711.750816,202.349242
711.834862,216.003788
711.918880,227.858333
712.002871,238.240152
712.086835,246.112879
712.170771,251.058333
712.254680,253.349242
712.338561,251.112879
712.422415,247.440152
712.506241,241.131061
712.590040,230.803788
712.673812,218.040152
712.757556,203.858333
712.841273,189.421970
712.924962,174.567424
713.008624,160.149242
713.092258,146.149242
713.175865,132.858333
713.259445,120.821970
713.342997,110.240152
713.426522,101.385606
713.510019,94.421970
713.593489,88.985606
713.676931,84.385606
713.760346,81.312879
713.843733,78.331061
713.927093,75.949242
714.010426,74.731061
714.093731,73.040152
714.177008,71.931061
714.260258,70.894697
714.343481,69.731061
714.426676,68.712879
714.509844,68.331061
714.592984,68.494697
714.676097,68.567424
714.759183,68.912879
714.842240,69.858333
714.925271,69.403788
715.008274,70.003788
715.091249,70.731061
715.174197,70.876515
715.257118,70.949242
715.340011,70.931061
715.422877,71.385606
715.505715,71.040152
715.588525,70.640152
715.671309,70.131061
715.754064,69.149242
715.836793,69.203788
715.919493,68.949242
716.002167,68.676515
716.084812,68.349242
716.167431,68.512879
716.250021,68.567424
716.332585,67.785606
716.415121,67.821970
716.497629,67.785606
716.580110,67.694697
716.662563,67.912879
716.744989,67.531061
716.827387,67.494697
716.909758,67.440152
716.992102,67.458333
717.074417,67.131061
717.156706,67.203788
717.238967,67.694697
717.321200,68.003788
717.403406,68.312879
717.485584,67.949242
717.567735,68.076515
717.649858,68.385606
717.731954,68.149242
717.814023,67.567424
717.896063,67.258333
717.978077,66.731061
718.060062,66.131061
718.142021,65.512879
718.223951,65.221970
718.305855,64.276515
718.387730,64.603788
718.469579,63.840152
718.551399,63.512879
718.633192,63.349242
718.714958,62.912879
718.796696,62.821970
718.878407,62.749242
718.960090,62.767424
719.041745,62.549242
719.123373,61.931061
719.204974,61.731061
719.286546,61.803788
719.368092,61.621970
719.449610,61.658333
719.531100,61.531061
719.612563,61.821970
719.693998,61.585606
719.775406,61.385606
719.856786,61.385606
719.938138,61.021970
720.019463,60.821970
720.100761,61.240152
720.182031,60.658333
720.263273,60.494697
720.344488,59.421970
720.425675,59.021970
720.506835,59.203788
720.587967,59.112879
720.669072,59.131061
720.750149,59.367424
720.831199,59.640152
720.912220,59.712879
720.993215,59.949242
721.074182,60.185606
721.155121,60.131061
721.236033,60.185606
721.316917,59.803788
721.397773,59.349242
721.478602,58.840152
721.559404,58.640152
721.640178,57.694697
721.720924,57.040152
721.801643,56.421970
721.882334,55.349242
721.962998,54.585606
722.043634,54.058333
722.124242,54.040152
722.204823,54.167424
722.285376,53.585606
722.365902,53.603788
722.446400,53.731061
722.526870,54.258333
722.607313,54.549242
722.687729,54.676515
722.768116,54.821970
722.848477,55.258333
722.928809,55.749242
723.009114,55.931061
723.089391,55.967424
723.169641,56.185606
723.249863,56.076515
723.330058,55.749242
723.410225,55.167424
723.490364,55.003788
723.570476,55.240152
723.650560,55.185606
723.730617,54.712879
723.810646,54.694697
723.890647,54.367424
723.970621,54.094697
724.050567,54.403788
724.130486,54.403788
724.210377,54.131061
724.290240,53.967424
724.370076,53.476515
724.449884,53.112879
724.529665,52.658333
724.609417,52.821970
724.689143,52.240152
724.768840,52.076515
724.848510,52.821970
724.928153,52.331061
725.007767,51.767424
725.087355,51.821970
725.166914,51.494697
725.246446,51.803788
725.325950,51.967424
725.405427,51.858333
725.484876,51.658333
725.564297,51.531061
725.643691,51.549242
725.723057,50.549242
725.802396,50.603788
725.881706,51.021970
725.960990,51.058333
726.040245,50.931061
726.119473,51.131061
726.198673,50.840152
726.277846,51.021970
726.356991,51.167424
726.436108,51.403788
726.515198,51.785606
726.594260,51.749242
726.673294,51.785606
726.752301,51.840152
726.831280,51.912879
726.910231,52.476515
726.989155,52.403788
727.068051,52.640152
727.146920,52.421970
727.225761,52.221970
727.304574,51.840152
727.383359,51.094697
727.462117,50.949242
727.540847,50.494697
727.619550,50.385606
727.698224,50.349242
727.776871,50.003788
727.855491,49.640152
727.934083,49.312879
728.012647,49.440152
728.091183,49.221970
728.169692,49.712879
728.248173,49.549242
728.326627,49.967424
728.405052,50.494697
728.483450,50.440152
728.561821,50.094697
728.640163,50.167424
728.718479,50.240152
728.796766,50.349242
728.875025,50.367424
728.953257,50.440152
729.031462,49.912879
729.109638,50.549242
729.187787,50.694697
729.265908,50.131061
729.344002,50.331061
729.422068,50.040152
729.500106,50.312879
729.578116,50.131061
729.656099,49.876515
729.734054,49.531061
729.811981,49.421970
729.889881,49.549242
729.967753,49.003788
730.045597,48.367424
730.123414,48.567424
730.201202,48.112879
730.278963,48.440152
730.356697,48.112879
730.434402,48.276515
730.512080,48.312879
730.589731,48.185606
730.667353,48.458333
730.744948,48.694697
730.822515,49.003788
730.900054,49.221970
730.977566,48.912879
731.055050,49.240152
731.132506,49.003788
731.209935,49.312879
731.287335,49.312879
731.364708,48.931061
731.442054,49.221970
731.519371,48.840152
731.596661,48.276515
731.673923,47.931061
731.751158,47.403788
731.828364,47.567424
731.905543,46.967424
731.982694,46.549242
732.059818,46.276515
732.136913,45.912879
732.213981,45.985606
732.291022,45.749242
732.368034,45.894697
732.445019,45.785606
732.521976,45.803788
732.598905,46.131061
732.675806,45.894697
732.752680,46.076515
732.829526,46.040152
732.906344,45.676515
732.983135,45.112879
733.059898,45.149242
733.136633,45.003788
733.213340,44.712879
733.290019,44.985606
733.366671,44.858333
733.443295,44.312879
733.519891,44.221970
733.596459,43.985606
733.673000,44.058333
733.749513,43.912879
733.825998,44.512879
733.902455,44.640152
733.978885,44.585606
734.055287,44.440152
734.131661,43.912879
734.208007,43.712879
734.284326,43.785606
734.360616,43.712879
734.436879,43.658333
734.513114,43.858333
734.589322,43.912879
734.665501,43.858333
734.741653,43.694697
734.817777,43.858333
734.893873,44.240152
734.969942,44.912879
735.045982,45.258333
735.121995,45.367424
735.197980,45.221970
735.273938,45.894697
735.349867,45.385606
735.425769,45.621970
735.501643,45.676515
735.577489,46.021970
735.653307,45.694697
735.729098,45.621970
735.804860,45.549242
735.880595,45.421970
735.956302,45.712879
736.031982,46.040152
736.107633,45.585606
736.183257,46.385606
736.258853,46.203788
736.334421,46.040152
736.409961,45.712879
736.485474,46.131061
736.560958,45.985606
736.636415,45.712879
736.711844,45.367424
736.787245,45.149242
736.862619,44.640152
736.937964,44.676515
737.013282,44.494697
737.088572,44.167424
737.163834,44.021970
737.239068,44.803788
737.314275,44.603788
737.389453,44.312879
737.464604,44.185606
737.539727,44.640152
737.614822,44.767424
737.689890,45.331061
737.764929,45.512879
737.839941,45.440152
737.914925,45.440152
737.989881,45.585606
738.064809,45.131061
738.139709,45.040152
738.214581,44.803788
738.289426,44.476515
738.364243,44.349242
738.439032,44.076515
738.513793,44.167424
738.588526,43.531061
738.663231,43.185606
738.737909,43.421970
738.812559,43.076515
738.887180,42.567424
738.961774,42.821970
739.036340,42.967424
739.110879,43.203788
739.185389,43.658333
739.259872,43.421970
739.334326,42.912879
739.408753,42.712879
739.483152,42.949242
739.557523,42.931061
739.631866,43.131061
739.706182,43.240152
739.780469,42.567424
739.854729,42.676515
739.928961,42.876515
740.003165,42.149242
740.077341,42.185606
740.151489,42.658333
740.225609,43.040152
740.299701,42.858333
740.373766,42.749242
740.447802,42.803788
740.521811,42.876515
740.595792,43.185606
740.669745,43.240152
740.743670,43.003788
740.817567,43.458333
740.891437,43.403788
740.965278,42.931061
741.039092,42.640152
741.112877,42.421970
741.186635,42.440152
741.260365,42.567424
741.334067,42.367424
741.407741,42.585606
741.481387,42.803788
741.555006,42.767424
741.628596,42.931061
741.702159,43.458333
741.775693,44.076515
741.849200,44.712879
741.922679,44.967424
741.996130,45.312879
742.069552,45.749242
742.142948,46.403788
742.216315,47.040152
742.289654,47.640152
742.362965,48.021970
742.436249,47.840152
742.509504,48.112879
742.582732,48.258333
742.655932,48.021970
742.729103,48.403788
742.802247,48.640152
742.875363,48.221970
742.948451,48.076515
743.021511,47.658333
743.094543,46.931061
743.167548,46.567424
743.240524,45.985606
743.313472,45.785606
743.386393,45.003788
743.459285,44.894697
743.532150,44.767424
743.604986,44.094697
743.677795,43.821970
743.750576,43.094697
743.823329,42.949242
743.896054,42.803788
743.968751,42.894697
744.041420,43.149242
744.114061,42.585606
744.186674,42.749242
744.259259,43.003788
744.331816,42.876515
744.404346,42.803788
744.476847,42.949242
744.549320,43.221970
744.621766,43.258333
744.694183,43.421970
744.766573,43.476515
744.838934,43.131061
744.911268,43.258333
744.983574,42.985606
745.055851,43.094697
745.128101,43.294697
745.200323,43.821970
745.272517,43.803788
745.344683,43.967424
745.416820,43.840152
745.488930,44.403788
745.561012,44.731061
745.633066,45.185606
745.705092,45.331061
745.777090,45.603788
745.849061,45.185606
745.921003,45.021970
745.992917,44.531061
746.064803,44.821970
746.136661,45.076515
746.208491,45.203788
746.280294,45.076515
746.352068,45.185606
746.423814,45.494697
746.495532,45.458333
746.567223,45.367424
746.638885,46.021970
746.710519,45.858333
746.782126,46.131061
746.853704,45.621970
746.925254,45.349242
746.996777,45.567424
747.068271,45.258333
747.139737,45.221970
747.211176,44.512879
747.282586,44.312879
747.353968,44.276515
747.425323,43.331061
747.496649,43.985606
747.567947,44.676515
747.639218,44.621970
747.710460,44.512879
747.781675,44.367424
747.852861,44.040152
747.924019,43.712879
747.995149,44.094697
748.066252,44.203788
748.137326,44.221970
748.208372,44.585606
748.279391,43.731061
748.350381,42.821970
748.421343,42.712879
748.492277,42.349242
748.563183,42.040152
748.634062,42.058333
748.704912,41.658333
748.775734,41.312879
748.846528,41.312879
748.917294,41.312879
748.988032,41.367424
749.058742,41.203788
749.129424,40.931061
749.200078,41.312879
749.270704,41.512879
749.341302,41.367424
749.411872,41.185606
749.482413,41.421970
749.552927,41.640152
749.623413,41.676515
749.693871,41.385606
749.764300,41.185606
749.834702,41.276515
749.905075,41.403788
