#72_EuGa4_Mar08_23.dat.txt
#Wed, Mar 8, 2023, 6:52 PM
#WL (nm), Int (cts)
674.996352,98.928571
675.091533,98.071429
675.186688,97.928571
675.281816,98.785714
675.376916,98.785714
675.471990,100.357143
675.567037,100.071429
675.662057,100.500000
675.757051,101.785714
675.852017,101.928571
675.946956,102.500000
676.041869,102.214286
676.136754,100.642857
676.231613,99.928571
676.326444,99.928571
676.421249,100.071429
676.516027,99.785714
676.610778,99.785714
676.705502,101.928571
676.800199,101.785714
676.894869,102.071429
676.989513,102.500000
677.084129,101.785714
677.178718,101.071429
677.273281,101.642857
677.367816,101.071429
677.462325,99.642857
677.556807,99.500000
677.651261,99.214286
677.745689,98.642857
677.840090,99.357143
677.934464,98.928571
678.028811,100.214286
678.123131,101.928571
678.217424,100.785714
678.311690,100.357143
678.405930,100.928571
678.500142,99.785714
678.594327,100.642857
678.688486,98.214286
678.782617,97.357143
678.876722,100.071429
678.970799,100.785714
679.064850,100.357143
679.158873,102.642857
679.252870,101.785714
679.346840,102.071429
679.440783,103.500000
679.534698,102.642857
679.628587,103.357143
679.722449,105.642857
679.816284,104.785714
679.910092,106.071429
680.003873,106.357143
680.097627,106.357143
680.191354,107.785714
680.285054,108.071429
680.378727,105.500000
680.472373,105.785714
680.565993,105.071429
680.659585,104.785714
680.753150,104.928571
680.846688,105.214286
680.940199,104.357143
681.033684,105.357143
681.127141,104.928571
681.220571,105.357143
681.313975,104.785714
681.407351,102.642857
681.500700,101.357143
681.594023,100.785714
681.687318,101.357143
681.780587,108.642857
681.873828,108.071429
681.967042,107.785714
682.060230,109.642857
682.153390,108.357143
682.246524,107.928571
682.339630,107.214286
682.432710,99.500000
682.525762,99.500000
682.618788,100.785714
682.711786,100.500000
682.804757,100.785714
682.897702,100.785714
682.990619,100.785714
683.083510,101.357143
683.176373,101.214286
683.269210,101.785714
683.362019,100.785714
683.454801,101.785714
683.547557,100.785714
683.640285,101.214286
683.732986,99.928571
683.825661,99.071429
683.918308,99.357143
684.010928,99.642857
684.103522,99.357143
684.196088,101.500000
684.288627,101.357143
684.381139,101.642857
684.473624,102.500000
684.566082,101.785714
684.658514,103.214286
684.750918,102.785714
684.843295,101.642857
684.935645,102.214286
685.027968,103.214286
685.120264,103.642857
685.212533,103.642857
685.304774,102.642857
685.396989,104.214286
685.489177,106.642857
685.581338,107.500000
685.673471,108.642857
685.765578,109.785714
685.857658,110.357143
685.949710,109.500000
686.041736,108.785714
686.133734,109.500000
686.225706,110.071429
686.317650,111.642857
686.409567,114.071429
686.501458,117.642857
686.593321,123.071429
686.685157,127.357143
686.776966,131.500000
686.868748,137.357143
686.960503,141.500000
687.052231,144.928571
687.143932,148.642857
687.235606,151.785714
687.327252,154.928571
687.418872,155.500000
687.510465,156.357143
687.602030,156.642857
687.693569,156.214286
687.785080,154.357143
687.876564,153.071429
687.968021,150.214286
688.059452,147.500000
688.150855,141.357143
688.242231,138.071429
688.333580,133.785714
688.424901,130.928571
688.516196,126.071429
688.607464,121.500000
688.698704,117.642857
688.789918,115.071429
688.881104,110.928571
688.972264,108.500000
689.063396,105.214286
689.154501,104.071429
689.245579,102.785714
689.336630,101.357143
689.427654,101.214286
689.518651,101.500000
689.609620,99.500000
689.700563,98.214286
689.791478,97.357143
689.882367,97.500000
689.973228,97.071429
690.064062,96.357143
690.154869,97.071429
690.245649,99.642857
690.336402,100.500000
690.427128,101.642857
690.517826,104.214286
690.608498,106.928571
690.699142,108.214286
690.789759,107.071429
690.880350,104.642857
690.970913,102.785714
691.061449,102.357143
691.151957,98.214286
691.242439,93.928571
691.332894,92.071429
691.423321,90.928571
691.513721,90.642857
691.604095,90.928571
691.694441,88.785714
691.784760,89.642857
691.875051,91.785714
691.965316,91.785714
692.055554,92.357143
692.145764,91.785714
692.235947,92.357143
692.326104,93.214286
692.416233,95.071429
692.506334,95.357143
692.596409,97.071429
692.686457,99.357143
692.776477,104.928571
692.866471,109.214286
692.956437,115.500000
693.046376,121.071429
693.136288,129.357143
693.226172,139.500000
693.316030,148.357143
693.405860,155.500000
693.495664,162.214286
693.585440,167.214286
693.675189,169.357143
693.764911,170.928571
693.854605,169.785714
693.944273,174.071429
694.033913,191.071429
694.123526,221.357143
694.213112,262.357143
694.302671,308.785714
694.392203,344.785714
694.481707,365.928571
694.571185,370.071429
694.660635,354.928571
694.750058,322.357143
694.839454,276.785714
694.928822,226.928571
695.018164,187.785714
695.107478,162.642857
695.196765,153.928571
695.286025,159.785714
695.375258,190.785714
695.464464,259.500000
695.553642,369.642857
695.642793,499.785714
695.731918,631.071429
695.821014,739.071429
695.910084,800.928571
695.999127,810.928571
696.088142,765.928571
696.177130,668.785714
696.266091,543.642857
696.355025,412.214286
696.443931,299.785714
696.532811,222.214286
696.621663,175.357143
696.710488,146.357143
696.799286,129.642857
696.888056,118.214286
696.976799,113.214286
697.065516,107.071429
697.154205,104.500000
697.242866,102.642857
697.331501,103.214286
697.420108,101.642857
697.508688,100.928571
697.597241,99.928571
697.685767,100.500000
697.774265,99.214286
697.862737,98.357143
697.951181,96.214286
698.039598,95.357143
698.127987,94.500000
698.216350,93.642857
698.304685,93.071429
698.392993,93.214286
698.481274,92.928571
698.569527,92.500000
698.657753,92.500000
698.745953,91.928571
698.834124,92.500000
698.922269,92.357143
699.010386,92.928571
699.098477,92.357143
699.186539,92.500000
699.274575,93.785714
699.362584,95.071429
699.450565,95.642857
699.538519,94.785714
699.626445,93.357143
699.714345,94.928571
699.802217,95.071429
699.890062,93.642857
699.977880,94.928571
700.065671,94.214286
700.153434,94.500000
700.241170,95.357143
700.328879,94.214286
700.416560,93.500000
700.504214,95.357143
700.591841,94.500000
700.679441,94.500000
700.767014,94.214286
700.854559,95.357143
700.942077,95.928571
701.029568,98.357143
701.117031,96.642857
701.204467,97.500000
701.291876,98.500000
701.379258,101.214286
701.466612,102.928571
701.553939,106.071429
701.641239,108.214286
701.728512,112.928571
701.815757,114.928571
701.902975,117.071429
701.990166,117.071429
702.077330,116.071429
702.164466,113.785714
702.251575,112.928571
702.338657,109.214286
702.425711,106.928571
702.512738,104.785714
702.599738,103.928571
702.686710,103.071429
702.773656,103.785714
702.860574,103.500000
702.947464,106.785714
703.034328,108.785714
703.121164,111.785714
703.207973,114.357143
703.294754,120.071429
703.381509,128.785714
703.468235,138.214286
703.554935,148.071429
703.641607,159.785714
703.728253,170.928571
703.814870,178.357143
703.901461,181.071429
703.988024,177.357143
704.074560,172.785714
704.161068,162.785714
704.247549,151.500000
704.334003,139.071429
704.420430,130.214286
704.506829,124.642857
704.593201,122.357143
704.679546,119.214286
704.765863,118.785714
704.852153,120.357143
704.938416,122.785714
705.024652,124.500000
705.110860,126.642857
705.197040,128.071429
705.283194,132.357143
705.369320,137.214286
705.455419,141.214286
705.541490,146.500000
705.627534,152.928571
705.713551,160.071429
705.799541,168.500000
705.885503,176.214286
705.971438,183.928571
706.057345,192.071429
706.143225,202.500000
706.229078,214.214286
706.314904,224.785714
706.400702,235.071429
706.486473,243.785714
706.572216,252.785714
706.657932,263.214286
706.743621,270.357143
706.829282,276.642857
706.914917,282.785714
707.000523,285.357143
707.086103,287.785714
707.171655,288.785714
707.257179,286.785714
707.342677,283.214286
707.428147,278.500000
707.513589,271.071429
707.599005,266.785714
707.684393,260.357143
707.769753,254.214286
707.855086,245.357143
707.940392,236.357143
708.025671,228.785714
708.110922,224.071429
708.196146,218.928571
708.281342,219.928571
708.366511,224.642857
708.451653,238.785714
708.536767,259.071429
708.621854,281.071429
708.706913,304.071429
708.791946,327.214286
708.876950,343.642857
708.961928,357.928571
709.046878,361.214286
709.131800,353.928571
709.216696,338.071429
709.301564,317.214286
709.386404,289.642857
709.471217,262.642857
709.556003,232.214286
709.640761,203.500000
709.725492,182.500000
709.810196,166.357143
709.894872,152.642857
709.979521,142.357143
710.064142,135.928571
710.148736,133.071429
710.233303,132.214286
710.317842,129.500000
710.402354,126.500000
710.486838,124.928571
710.571295,128.500000
710.655725,127.214286
710.740127,127.071429
710.824502,127.785714
710.908849,128.500000
710.993169,131.642857
711.077462,134.785714
711.161727,136.928571
711.245965,145.500000
711.330175,154.357143
711.414358,164.500000
711.498514,179.214286
711.582642,195.642857
711.666743,214.071429
711.750816,231.357143
711.834862,247.214286
711.918880,260.642857
712.002871,274.500000
712.086835,283.500000
712.170771,289.071429
712.254680,288.214286
712.338561,287.785714
712.422415,284.500000
712.506241,277.357143
712.590040,266.357143
712.673812,254.357143
712.757556,238.214286
712.841273,223.928571
712.924962,204.785714
713.008624,185.071429
713.092258,169.500000
713.175865,154.785714
713.259445,141.500000
713.342997,131.785714
713.426522,122.928571
713.510019,117.642857
713.593489,114.642857
713.676931,111.642857
713.760346,108.785714
713.843733,104.642857
713.927093,102.928571
714.010426,101.071429
714.093731,100.357143
714.177008,99.071429
714.260258,96.928571
714.343481,96.642857
714.426676,97.071429
714.509844,95.785714
714.592984,95.500000
714.676097,93.928571
714.759183,94.500000
714.842240,94.928571
714.925271,94.642857
715.008274,94.785714
715.091249,95.071429
715.174197,96.357143
715.257118,97.500000
715.340011,96.214286
715.422877,95.928571
715.505715,95.500000
715.588525,95.500000
715.671309,95.071429
715.754064,94.214286
715.836793,93.642857
715.919493,92.928571
716.002167,93.500000
716.084812,94.214286
716.167431,93.500000
716.250021,93.357143
716.332585,93.214286
716.415121,93.500000
716.497629,93.642857
716.580110,92.357143
716.662563,90.500000
716.744989,90.500000
716.827387,90.214286
716.909758,90.071429
716.992102,89.928571
717.074417,90.642857
717.156706,91.214286
717.238967,91.642857
717.321200,91.357143
717.403406,91.928571
717.485584,92.500000
717.567735,92.357143
717.649858,91.357143
717.731954,90.214286
717.814023,90.214286
717.896063,90.785714
717.978077,90.642857
718.060062,89.642857
718.142021,88.928571
718.223951,90.357143
718.305855,90.357143
718.387730,90.357143
718.469579,89.928571
718.551399,88.500000
718.633192,87.928571
718.714958,88.642857
718.796696,88.214286
718.878407,88.928571
718.960090,89.500000
719.041745,88.928571
719.123373,89.642857
719.204974,89.642857
719.286546,88.357143
719.368092,87.785714
719.449610,88.214286
719.531100,87.785714
719.612563,87.500000
719.693998,88.500000
719.775406,88.500000
719.856786,89.928571
719.938138,88.928571
720.019463,87.071429
720.100761,86.214286
720.182031,86.071429
720.263273,84.500000
720.344488,84.785714
720.425675,82.214286
720.506835,82.214286
720.587967,81.928571
720.669072,82.071429
720.750149,83.642857
720.831199,83.357143
720.912220,83.642857
720.993215,85.642857
721.074182,85.357143
721.155121,87.785714
721.236033,88.642857
721.316917,88.214286
721.397773,89.357143
721.478602,88.357143
721.559404,88.928571
721.640178,88.500000
721.720924,88.642857
721.801643,87.500000
721.882334,86.785714
721.962998,86.642857
722.043634,86.214286
722.124242,84.500000
722.204823,84.785714
722.285376,82.928571
722.365902,81.928571
722.446400,81.500000
722.526870,80.642857
722.607313,81.214286
722.687729,83.071429
722.768116,84.071429
722.848477,84.214286
722.928809,84.500000
723.009114,84.642857
723.089391,85.642857
723.169641,86.785714
723.249863,84.928571
723.330058,84.357143
723.410225,83.214286
723.490364,83.214286
723.570476,82.785714
723.650560,82.357143
723.730617,80.928571
723.810646,81.071429
723.890647,80.357143
723.970621,81.642857
724.050567,82.500000
724.130486,81.928571
724.210377,82.214286
724.290240,81.500000
724.370076,81.642857
724.449884,81.928571
724.529665,81.500000
724.609417,80.928571
724.689143,80.785714
724.768840,80.500000
724.848510,81.071429
724.928153,81.357143
725.007767,82.214286
725.087355,81.500000
725.166914,80.500000
725.246446,81.785714
725.325950,81.785714
725.405427,82.071429
725.484876,81.928571
725.564297,82.071429
725.643691,84.071429
725.723057,85.357143
725.802396,86.214286
725.881706,84.785714
725.960990,85.214286
726.040245,85.642857
726.119473,85.071429
726.198673,82.642857
726.277846,82.500000
726.356991,81.642857
726.436108,83.357143
726.515198,83.642857
726.594260,83.642857
726.673294,83.928571
726.752301,85.642857
726.831280,85.214286
726.910231,85.071429
726.989155,85.214286
727.068051,84.071429
727.146920,84.214286
727.225761,82.928571
727.304574,82.071429
727.383359,82.071429
727.462117,81.500000
727.540847,80.928571
727.619550,80.642857
727.698224,80.214286
727.776871,81.500000
727.855491,82.071429
727.934083,81.928571
728.012647,81.785714
728.091183,80.928571
728.169692,80.357143
728.248173,79.071429
728.326627,78.928571
728.405052,77.785714
728.483450,77.928571
728.561821,77.642857
728.640163,76.928571
728.718479,78.357143
728.796766,79.214286
728.875025,79.500000
728.953257,78.642857
729.031462,78.785714
729.109638,78.928571
729.187787,79.785714
729.265908,79.214286
729.344002,80.214286
729.422068,79.928571
729.500106,82.357143
729.578116,81.785714
729.656099,82.928571
729.734054,82.357143
729.811981,81.500000
729.889881,79.785714
729.967753,78.928571
730.045597,77.214286
730.123414,77.785714
730.201202,76.642857
730.278963,77.642857
730.356697,77.928571
730.434402,78.928571
730.512080,80.642857
730.589731,82.500000
730.667353,82.642857
730.744948,82.785714
730.822515,82.214286
730.900054,82.928571
730.977566,82.500000
731.055050,81.071429
731.132506,80.071429
731.209935,80.928571
731.287335,80.357143
731.364708,81.357143
731.442054,80.785714
731.519371,80.785714
731.596661,81.500000
731.673923,80.357143
731.751158,78.785714
731.828364,79.500000
731.905543,78.500000
731.982694,79.214286
732.059818,77.785714
732.136913,76.357143
732.213981,76.928571
732.291022,78.500000
732.368034,78.642857
732.445019,78.642857
732.521976,78.071429
732.598905,79.500000
732.675806,79.071429
732.752680,79.357143
732.829526,77.928571
732.906344,77.785714
732.983135,77.500000
733.059898,76.928571
733.136633,76.500000
733.213340,78.214286
733.290019,77.071429
733.366671,78.071429
733.443295,78.500000
733.519891,78.642857
733.596459,78.214286
733.673000,78.928571
733.749513,77.928571
733.825998,78.500000
733.902455,76.928571
733.978885,76.357143
734.055287,78.214286
734.131661,79.071429
734.208007,77.642857
734.284326,76.928571
734.360616,77.785714
734.436879,78.071429
734.513114,78.071429
734.589322,75.785714
734.665501,75.928571
734.741653,76.357143
734.817777,77.500000
734.893873,77.500000
734.969942,77.071429
735.045982,76.214286
735.121995,76.785714
735.197980,76.214286
735.273938,77.214286
735.349867,76.642857
735.425769,75.642857
735.501643,76.071429
735.577489,77.214286
735.653307,77.785714
735.729098,78.642857
735.804860,78.500000
735.880595,79.785714
735.956302,80.071429
736.031982,80.500000
736.107633,80.785714
736.183257,79.357143
736.258853,78.071429
736.334421,77.500000
736.409961,75.785714
736.485474,74.928571
736.560958,74.642857
736.636415,73.642857
736.711844,74.500000
736.787245,75.928571
736.862619,75.500000
736.937964,76.785714
737.013282,76.928571
737.088572,77.785714
737.163834,77.928571
737.239068,77.071429
737.314275,76.500000
737.389453,77.214286
737.464604,76.357143
737.539727,75.214286
737.614822,73.357143
737.689890,72.642857
737.764929,73.928571
737.839941,73.785714
737.914925,74.500000
737.989881,74.357143
738.064809,75.642857
738.139709,76.928571
738.214581,77.357143
738.289426,76.071429
738.364243,75.785714
738.439032,75.071429
738.513793,74.357143
738.588526,74.357143
738.663231,74.357143
738.737909,73.928571
738.812559,74.214286
738.887180,73.785714
738.961774,73.500000
739.036340,73.785714
739.110879,74.500000
739.185389,73.785714
739.259872,74.642857
739.334326,74.785714
739.408753,75.071429
739.483152,75.500000
739.557523,74.928571
739.631866,76.071429
739.706182,77.071429
739.780469,76.928571
739.854729,76.642857
739.928961,77.071429
740.003165,75.357143
740.077341,75.928571
740.151489,73.357143
740.225609,72.642857
740.299701,72.642857
740.373766,73.642857
740.447802,73.071429
740.521811,74.642857
740.595792,75.214286
740.669745,76.928571
740.743670,77.214286
740.817567,77.214286
740.891437,77.071429
740.965278,77.071429
741.039092,76.214286
741.112877,76.785714
741.186635,75.357143
741.260365,74.500000
741.334067,74.357143
741.407741,73.357143
741.481387,73.785714
741.555006,75.071429
741.628596,74.214286
741.702159,75.357143
741.775693,76.071429
741.849200,77.214286
741.922679,78.214286
741.996130,78.785714
742.069552,78.785714
742.142948,80.357143
742.216315,81.214286
742.289654,81.928571
742.362965,82.500000
742.436249,83.500000
742.509504,83.071429
742.582732,82.785714
742.655932,82.357143
742.729103,81.928571
742.802247,81.642857
742.875363,80.928571
742.948451,80.785714
743.021511,81.071429
743.094543,82.071429
743.167548,80.785714
743.240524,80.214286
743.313472,80.500000
743.386393,78.928571
743.459285,78.071429
743.532150,77.642857
743.604986,76.785714
743.677795,77.928571
743.750576,78.500000
743.823329,77.642857
743.896054,78.357143
743.968751,78.071429
744.041420,78.928571
744.114061,77.785714
744.186674,76.785714
744.259259,74.785714
744.331816,74.500000
744.404346,73.785714
744.476847,73.785714
744.549320,72.785714
744.621766,72.928571
744.694183,72.785714
744.766573,73.928571
744.838934,74.928571
744.911268,76.071429
744.983574,75.785714
745.055851,75.785714
745.128101,74.928571
745.200323,76.071429
745.272517,76.500000
745.344683,75.785714
745.416820,74.785714
745.488930,76.500000
745.561012,77.928571
745.633066,79.785714
745.705092,79.357143
745.777090,79.357143
745.849061,78.642857
745.921003,78.928571
745.992917,77.214286
746.064803,76.928571
746.136661,75.642857
746.208491,76.071429
746.280294,76.357143
746.352068,77.357143
746.423814,79.642857
746.495532,79.357143
746.567223,78.642857
746.638885,79.071429
746.710519,79.071429
746.782126,79.214286
746.853704,78.785714
746.925254,77.071429
746.996777,77.357143
747.068271,75.785714
747.139737,76.642857
747.211176,77.357143
747.282586,75.928571
747.353968,75.642857
747.425323,75.642857
747.496649,75.214286
747.567947,76.214286
747.639218,76.785714
747.710460,75.785714
747.781675,76.357143
747.852861,77.214286
747.924019,75.928571
747.995149,77.071429
748.066252,78.642857
748.137326,77.071429
748.208372,75.642857
748.279391,75.642857
748.350381,75.071429
748.421343,75.500000
748.492277,74.214286
748.563183,72.642857
748.634062,72.071429
748.704912,72.071429
748.775734,71.785714
748.846528,70.785714
748.917294,70.928571
748.988032,72.214286
749.058742,71.357143
749.129424,71.500000
749.200078,72.071429
749.270704,72.500000
749.341302,73.357143
749.411872,74.071429
749.482413,73.214286
749.552927,74.357143
749.623413,75.071429
749.693871,76.071429
749.764300,74.785714
749.834702,75.642857
749.905075,74.928571
