#73_EuGa4_Mar08_23.dat.txt
#Wed, Mar 8, 2023, 6:53 PM
#WL (nm), Int (cts)
674.996352,64.946429
675.091533,65.517857
675.186688,64.375000
675.281816,65.089286
675.376916,66.803571
675.471990,66.660714
675.567037,66.375000
675.662057,66.232143
675.757051,65.660714
675.852017,66.375000
675.946956,65.946429
676.041869,64.803571
676.136754,65.946429
676.231613,65.660714
676.326444,65.089286
676.421249,66.375000
676.516027,66.517857
676.610778,67.517857
676.705502,67.803571
676.800199,65.803571
676.894869,66.089286
676.989513,65.946429
677.084129,65.375000
677.178718,64.803571
677.273281,64.803571
677.367816,64.660714
677.462325,65.803571
677.556807,65.803571
677.651261,66.517857
677.745689,66.232143
677.840090,66.089286
677.934464,65.517857
678.028811,65.803571
678.123131,65.803571
678.217424,64.089286
678.311690,63.660714
678.405930,62.946429
678.500142,64.232143
678.594327,64.232143
678.688486,64.375000
678.782617,64.517857
678.876722,66.375000
678.970799,67.946429
679.064850,68.660714
679.158873,67.660714
679.252870,67.660714
679.346840,67.803571
679.440783,67.660714
679.534698,67.232143
679.628587,65.232143
679.722449,67.089286
679.816284,67.660714
679.910092,68.517857
680.003873,68.803571
680.097627,69.517857
680.191354,70.232143
680.285054,71.803571
680.378727,72.089286
680.472373,71.946429
680.565993,72.375000
680.659585,72.089286
680.753150,71.803571
680.846688,72.517857
680.940199,71.660714
681.033684,70.946429
681.127141,71.660714
681.220571,70.946429
681.313975,70.375000
681.407351,70.375000
681.500700,68.517857
681.594023,68.375000
681.687318,66.517857
681.780587,74.089286
681.873828,73.517857
681.967042,72.803571
682.060230,72.517857
682.153390,73.803571
682.246524,74.517857
682.339630,75.660714
682.432710,67.517857
682.525762,67.089286
682.618788,68.375000
682.711786,67.660714
682.804757,66.946429
682.897702,66.803571
682.990619,67.517857
683.083510,65.946429
683.176373,67.660714
683.269210,66.089286
683.362019,65.803571
683.454801,66.803571
683.547557,65.803571
683.640285,64.517857
683.732986,66.232143
683.825661,65.946429
683.918308,67.375000
684.010928,69.232143
684.103522,68.660714
684.196088,68.803571
684.288627,68.803571
684.381139,68.803571
684.473624,67.946429
684.566082,68.517857
684.658514,68.517857
684.750918,67.946429
684.843295,68.946429
684.935645,69.089286
685.027968,68.803571
685.120264,68.660714
685.212533,67.803571
685.304774,67.660714
685.396989,69.089286
685.489177,68.803571
685.581338,69.660714
685.673471,70.946429
685.765578,72.089286
685.857658,72.803571
685.949710,74.946429
686.041736,75.660714
686.133734,77.089286
686.225706,78.517857
686.317650,79.660714
686.409567,82.232143
686.501458,86.089286
686.593321,88.232143
686.685157,91.517857
686.776966,96.375000
686.868748,100.089286
686.960503,104.803571
687.052231,109.089286
687.143932,113.375000
687.235606,116.089286
687.327252,119.803571
687.418872,122.803571
687.510465,126.232143
687.602030,127.946429
687.693569,128.660714
687.785080,126.375000
687.876564,124.803571
687.968021,123.517857
688.059452,120.089286
688.150855,115.946429
688.242231,112.946429
688.333580,107.946429
688.424901,106.803571
688.516196,103.803571
688.607464,100.660714
688.698704,97.803571
688.789918,95.946429
688.881104,93.660714
688.972264,93.517857
689.063396,92.089286
689.154501,92.232143
689.245579,91.089286
689.336630,91.660714
689.427654,91.375000
689.518651,92.660714
689.609620,94.232143
689.700563,94.232143
689.791478,95.517857
689.882367,97.375000
689.973228,98.946429
690.064062,101.946429
690.154869,105.946429
690.245649,110.232143
690.336402,113.375000
690.427128,117.660714
690.517826,122.803571
690.608498,128.517857
690.699142,133.375000
690.789759,135.232143
690.880350,136.946429
690.970913,143.089286
691.061449,151.660714
691.151957,166.660714
691.242439,203.517857
691.332894,300.089286
691.423321,504.946429
691.513721,824.660714
691.604095,1207.803571
691.694441,1571.375000
691.784760,1861.660714
691.875051,2015.232143
691.965316,2014.946429
692.055554,1860.946429
692.145764,1571.803571
692.235947,1210.946429
692.326104,864.803571
692.416233,585.803571
692.506334,431.660714
692.596409,400.517857
692.686457,500.089286
692.776477,840.946429
692.866471,1488.946429
692.956437,2386.660714
693.046376,3378.089286
693.136288,4316.803571
693.226172,5000.946429
693.316030,5288.660714
693.405860,5139.089286
693.495664,4587.089286
693.585440,3738.375000
693.675189,2763.946429
693.764911,1815.375000
693.854605,1084.232143
693.944273,659.375000
694.033913,448.232143
694.123526,338.232143
694.213112,273.375000
694.302671,235.660714
694.392203,213.517857
694.481707,196.517857
694.571185,184.375000
694.660635,173.803571
694.750058,161.232143
694.839454,149.946429
694.928822,142.803571
695.018164,136.660714
695.107478,133.232143
695.196765,128.660714
695.286025,125.089286
695.375258,122.517857
695.464464,120.803571
695.553642,117.660714
695.642793,114.089286
695.731918,111.375000
695.821014,110.660714
695.910084,109.375000
695.999127,107.946429
696.088142,106.660714
696.177130,105.803571
696.266091,103.803571
696.355025,102.660714
696.443931,102.803571
696.532811,104.089286
696.621663,107.660714
696.710488,110.803571
696.799286,111.660714
696.888056,112.089286
696.976799,110.660714
697.065516,109.375000
697.154205,108.375000
697.242866,108.517857
697.331501,110.375000
697.420108,115.517857
697.508688,120.232143
697.597241,124.517857
697.685767,123.660714
697.774265,121.660714
697.862737,114.089286
697.951181,104.946429
698.039598,95.375000
698.127987,90.660714
698.216350,90.660714
698.304685,98.232143
698.392993,111.375000
698.481274,126.803571
698.569527,143.089286
698.657753,157.660714
698.745953,167.089286
698.834124,169.089286
698.922269,164.517857
699.010386,152.803571
699.098477,142.803571
699.186539,130.375000
699.274575,119.803571
699.362584,110.232143
699.450565,104.375000
699.538519,99.660714
699.626445,98.517857
699.714345,97.946429
699.802217,99.660714
699.890062,102.089286
699.977880,105.089286
700.065671,108.946429
700.153434,115.089286
700.241170,127.375000
700.328879,147.660714
700.416560,180.660714
700.504214,219.803571
700.591841,265.660714
700.679441,306.946429
700.767014,335.660714
700.854559,340.803571
700.942077,327.375000
701.029568,295.803571
701.117031,253.375000
701.204467,203.232143
701.291876,155.803571
701.379258,118.517857
701.466612,98.660714
701.553939,86.232143
701.641239,79.089286
701.728512,75.517857
701.815757,74.232143
701.902975,74.803571
701.990166,76.232143
702.077330,75.089286
702.164466,76.517857
702.251575,78.232143
702.338657,80.517857
702.425711,81.946429
702.512738,82.803571
702.599738,84.803571
702.686710,86.803571
702.773656,89.517857
702.860574,93.660714
702.947464,97.517857
703.034328,100.946429
703.121164,108.089286
703.207973,113.375000
703.294754,125.803571
703.381509,141.375000
703.468235,163.375000
703.554935,188.803571
703.641607,217.803571
703.728253,243.517857
703.814870,269.660714
703.901461,283.660714
703.988024,287.803571
704.074560,280.375000
704.161068,262.375000
704.247549,240.660714
704.334003,215.946429
704.420430,190.232143
704.506829,171.232143
704.593201,155.660714
704.679546,143.946429
704.765863,140.089286
704.852153,137.803571
704.938416,138.375000
705.024652,142.089286
705.110860,145.803571
705.197040,153.803571
705.283194,162.660714
705.369320,170.232143
705.455419,178.517857
705.541490,188.517857
705.627534,194.803571
705.713551,200.803571
705.799541,205.089286
705.885503,211.660714
705.971438,217.660714
706.057345,225.089286
706.143225,228.803571
706.229078,236.089286
706.314904,244.517857
706.400702,254.946429
706.486473,263.232143
706.572216,273.232143
706.657932,279.089286
706.743621,286.375000
706.829282,292.660714
706.914917,295.946429
707.000523,296.660714
707.086103,292.232143
707.171655,284.375000
707.257179,276.946429
707.342677,267.803571
707.428147,256.660714
707.513589,244.375000
707.599005,232.517857
707.684393,223.089286
707.769753,212.232143
707.855086,202.089286
707.940392,193.232143
708.025671,187.375000
708.110922,185.803571
708.196146,185.089286
708.281342,188.517857
708.366511,201.517857
708.451653,219.375000
708.536767,241.375000
708.621854,264.660714
708.706913,287.803571
708.791946,309.660714
708.876950,329.803571
708.961928,339.232143
709.046878,340.946429
709.131800,332.660714
709.216696,316.946429
709.301564,294.232143
709.386404,266.803571
709.471217,236.232143
709.556003,208.803571
709.640761,181.946429
709.725492,161.232143
709.810196,145.803571
709.894872,134.803571
709.979521,127.803571
710.064142,122.660714
710.148736,119.803571
710.233303,118.517857
710.317842,117.660714
710.402354,115.803571
710.486838,115.803571
710.571295,118.660714
710.655725,119.375000
710.740127,121.375000
710.824502,124.375000
710.908849,127.089286
710.993169,131.660714
711.077462,135.375000
711.161727,140.089286
711.245965,150.375000
711.330175,161.803571
711.414358,175.803571
711.498514,192.660714
711.582642,214.660714
711.666743,236.946429
711.750816,258.946429
711.834862,280.517857
711.918880,298.660714
712.002871,314.803571
712.086835,327.803571
712.170771,332.517857
712.254680,333.089286
712.338561,330.660714
712.422415,323.946429
712.506241,316.517857
712.590040,305.517857
712.673812,292.375000
712.757556,276.232143
712.841273,260.803571
712.924962,242.517857
713.008624,223.089286
713.092258,205.375000
713.175865,188.232143
713.259445,173.946429
713.342997,163.946429
713.426522,156.375000
713.510019,153.089286
713.593489,151.517857
713.676931,150.232143
713.760346,148.375000
713.843733,147.232143
713.927093,147.660714
714.010426,147.232143
714.093731,144.517857
714.177008,142.803571
714.260258,139.089286
714.343481,135.946429
714.426676,133.089286
714.509844,127.946429
714.592984,122.946429
714.676097,119.375000
714.759183,114.803571
714.842240,111.517857
714.925271,109.375000
715.008274,107.517857
715.091249,105.803571
715.174197,105.232143
715.257118,103.946429
715.340011,103.517857
715.422877,104.089286
715.505715,105.660714
715.588525,106.660714
715.671309,106.517857
715.754064,106.517857
715.836793,106.232143
715.919493,106.660714
716.002167,105.375000
716.084812,104.660714
716.167431,102.089286
716.250021,101.517857
716.332585,100.803571
716.415121,99.946429
716.497629,97.660714
716.580110,95.803571
716.662563,94.089286
716.744989,92.089286
716.827387,90.660714
716.909758,88.232143
716.992102,87.803571
717.074417,88.375000
717.156706,88.946429
717.238967,89.375000
717.321200,90.232143
717.403406,91.660714
717.485584,94.089286
717.567735,94.660714
717.649858,94.089286
717.731954,94.232143
717.814023,93.946429
717.896063,93.803571
717.978077,91.803571
718.060062,89.517857
718.142021,88.232143
718.223951,87.089286
718.305855,85.232143
718.387730,83.660714
718.469579,82.232143
718.551399,81.660714
718.633192,81.946429
718.714958,82.660714
718.796696,83.375000
718.878407,83.803571
718.960090,84.946429
719.041745,85.946429
719.123373,86.803571
719.204974,87.803571
719.286546,87.517857
719.368092,86.946429
719.449610,87.517857
719.531100,86.660714
719.612563,86.375000
719.693998,86.232143
719.775406,84.517857
719.856786,82.803571
719.938138,83.375000
720.019463,81.803571
720.100761,79.946429
720.182031,78.375000
720.263273,77.089286
720.344488,77.517857
720.425675,77.232143
720.506835,75.375000
720.587967,75.232143
720.669072,75.375000
720.750149,76.232143
720.831199,76.089286
720.912220,74.375000
720.993215,74.660714
721.074182,73.660714
721.155121,74.232143
721.236033,73.517857
721.316917,72.517857
721.397773,71.803571
721.478602,70.375000
721.559404,68.803571
721.640178,68.517857
721.720924,66.089286
721.801643,65.232143
721.882334,63.660714
721.962998,62.089286
722.043634,62.660714
722.124242,61.517857
722.204823,60.232143
722.285376,60.517857
722.365902,60.517857
722.446400,60.375000
722.526870,61.089286
722.607313,59.803571
722.687729,59.803571
722.768116,60.660714
722.848477,60.232143
722.928809,60.089286
723.009114,59.946429
723.089391,59.089286
723.169641,59.803571
723.249863,59.517857
723.330058,59.517857
723.410225,58.946429
723.490364,57.946429
723.570476,57.660714
723.650560,57.517857
723.730617,58.089286
723.810646,58.946429
723.890647,59.660714
723.970621,61.089286
724.050567,61.660714
724.130486,61.660714
724.210377,62.089286
724.290240,61.375000
724.370076,60.660714
724.449884,58.946429
724.529665,56.946429
724.609417,56.803571
724.689143,57.660714
724.768840,58.517857
724.848510,58.517857
724.928153,59.517857
725.007767,62.375000
725.087355,64.517857
725.166914,64.517857
725.246446,64.089286
725.325950,63.946429
725.405427,64.089286
725.484876,63.517857
725.564297,62.375000
725.643691,61.660714
725.723057,61.946429
725.802396,62.803571
725.881706,62.375000
725.960990,63.232143
726.040245,64.660714
726.119473,64.517857
726.198673,64.803571
726.277846,65.803571
726.356991,65.089286
726.436108,64.375000
726.515198,63.375000
726.594260,61.089286
726.673294,60.517857
726.752301,59.375000
726.831280,58.375000
726.910231,57.232143
726.989155,57.803571
727.068051,58.660714
727.146920,59.375000
727.225761,59.232143
727.304574,59.517857
727.383359,60.660714
727.462117,61.232143
727.540847,61.089286
727.619550,59.375000
727.698224,59.375000
727.776871,59.660714
727.855491,59.089286
727.934083,57.375000
728.012647,57.232143
728.091183,56.517857
728.169692,56.517857
728.248173,54.946429
728.326627,54.375000
728.405052,53.803571
728.483450,52.946429
728.561821,52.232143
728.640163,52.089286
728.718479,51.089286
728.796766,50.946429
728.875025,49.517857
728.953257,49.517857
729.031462,49.232143
729.109638,48.660714
729.187787,46.232143
729.265908,46.946429
729.344002,48.089286
729.422068,48.803571
729.500106,49.232143
729.578116,49.232143
729.656099,49.660714
729.734054,51.517857
729.811981,50.232143
729.889881,48.660714
729.967753,48.660714
730.045597,48.089286
730.123414,48.803571
730.201202,48.803571
730.278963,49.232143
730.356697,49.946429
730.434402,50.660714
730.512080,50.232143
730.589731,51.089286
730.667353,50.803571
730.744948,50.946429
730.822515,51.375000
730.900054,51.803571
730.977566,51.946429
731.055050,51.803571
731.132506,51.089286
731.209935,51.803571
731.287335,52.375000
731.364708,51.803571
731.442054,52.660714
731.519371,52.517857
731.596661,53.089286
731.673923,51.946429
731.751158,51.089286
731.828364,49.946429
731.905543,48.803571
731.982694,48.375000
732.059818,47.232143
732.136913,46.232143
732.213981,47.232143
732.291022,46.803571
732.368034,45.946429
732.445019,45.946429
732.521976,45.089286
732.598905,45.089286
732.675806,44.660714
732.752680,43.946429
732.829526,43.803571
732.906344,44.089286
732.983135,43.517857
733.059898,42.803571
733.136633,42.803571
733.213340,42.946429
733.290019,43.803571
733.366671,43.517857
733.443295,44.089286
733.519891,44.517857
733.596459,43.375000
733.673000,43.946429
733.749513,44.232143
733.825998,42.946429
733.902455,42.660714
733.978885,42.660714
734.055287,42.375000
734.131661,43.517857
734.208007,42.946429
734.284326,42.375000
734.360616,42.946429
734.436879,43.232143
734.513114,42.232143
734.589322,42.803571
734.665501,42.803571
734.741653,43.517857
734.817777,42.803571
734.893873,42.232143
734.969942,42.089286
735.045982,42.660714
735.121995,43.375000
735.197980,42.946429
735.273938,41.660714
735.349867,41.803571
735.425769,42.517857
735.501643,42.089286
735.577489,41.946429
735.653307,39.660714
735.729098,40.375000
735.804860,40.232143
735.880595,41.517857
735.956302,40.946429
736.031982,41.375000
736.107633,41.375000
736.183257,41.517857
736.258853,40.232143
736.334421,40.946429
736.409961,39.660714
736.485474,39.660714
736.560958,39.803571
736.636415,39.660714
736.711844,40.946429
736.787245,42.232143
736.862619,41.089286
736.937964,42.089286
737.013282,41.375000
737.088572,41.232143
737.163834,41.946429
737.239068,41.232143
737.314275,41.089286
737.389453,43.660714
737.464604,43.660714
737.539727,44.232143
737.614822,44.375000
737.689890,44.089286
737.764929,44.089286
737.839941,43.946429
737.914925,42.375000
737.989881,41.803571
738.064809,41.660714
738.139709,40.803571
738.214581,39.660714
738.289426,39.803571
738.364243,39.803571
738.439032,39.375000
738.513793,39.660714
738.588526,39.517857
738.663231,40.375000
738.737909,41.375000
738.812559,41.660714
738.887180,40.803571
738.961774,41.375000
739.036340,40.803571
739.110879,41.660714
739.185389,41.517857
739.259872,41.232143
739.334326,42.517857
739.408753,43.660714
739.483152,43.375000
739.557523,43.660714
739.631866,43.660714
739.706182,43.660714
739.780469,43.946429
739.854729,43.517857
739.928961,42.803571
740.003165,44.375000
740.077341,44.803571
740.151489,44.803571
740.225609,44.946429
740.299701,44.232143
740.373766,42.803571
740.447802,43.232143
740.521811,42.517857
740.595792,42.089286
740.669745,41.803571
740.743670,41.375000
740.817567,41.660714
740.891437,42.660714
740.965278,43.946429
741.039092,43.375000
741.112877,43.660714
741.186635,42.946429
741.260365,44.232143
741.334067,45.089286
741.407741,44.946429
741.481387,43.517857
741.555006,44.375000
741.628596,44.660714
741.702159,45.375000
741.775693,45.517857
741.849200,44.946429
741.922679,46.089286
741.996130,46.803571
742.069552,46.517857
742.142948,47.375000
742.216315,48.517857
742.289654,49.089286
742.362965,49.375000
742.436249,48.660714
742.509504,48.803571
742.582732,49.375000
742.655932,48.803571
742.729103,49.232143
742.802247,47.517857
742.875363,47.375000
742.948451,47.089286
743.021511,46.803571
743.094543,46.232143
743.167548,45.803571
743.240524,43.803571
743.313472,45.375000
743.386393,44.803571
743.459285,44.803571
743.532150,44.660714
743.604986,44.803571
743.677795,45.089286
743.750576,44.946429
743.823329,43.946429
743.896054,44.946429
743.968751,44.375000
744.041420,44.089286
744.114061,43.089286
744.186674,43.089286
744.259259,42.660714
744.331816,41.946429
744.404346,40.946429
744.476847,41.375000
744.549320,41.089286
744.621766,41.946429
744.694183,40.660714
744.766573,41.946429
744.838934,41.803571
744.911268,41.803571
744.983574,40.803571
745.055851,41.089286
745.128101,40.803571
745.200323,42.660714
745.272517,42.946429
745.344683,43.517857
745.416820,43.660714
745.488930,44.660714
745.561012,44.946429
745.633066,45.232143
745.705092,44.375000
745.777090,44.232143
745.849061,44.517857
745.921003,44.089286
745.992917,43.089286
746.064803,43.660714
746.136661,42.803571
746.208491,42.089286
746.280294,41.375000
746.352068,41.375000
746.423814,41.232143
746.495532,41.946429
746.567223,40.517857
746.638885,40.660714
746.710519,41.660714
746.782126,42.089286
746.853704,40.803571
746.925254,40.660714
746.996777,39.946429
747.068271,39.232143
747.139737,40.089286
747.211176,39.232143
747.282586,38.660714
747.353968,38.232143
747.425323,38.232143
747.496649,38.232143
747.567947,38.803571
747.639218,38.803571
747.710460,38.660714
747.781675,38.089286
747.852861,38.946429
747.924019,39.517857
747.995149,39.232143
748.066252,40.517857
748.137326,39.517857
748.208372,39.089286
748.279391,38.660714
748.350381,37.946429
748.421343,36.375000
748.492277,36.946429
748.563183,34.803571
748.634062,34.660714
748.704912,34.089286
748.775734,34.803571
748.846528,35.232143
748.917294,36.946429
748.988032,37.517857
749.058742,38.232143
749.129424,38.517857
749.200078,39.375000
749.270704,38.232143
749.341302,38.232143
749.411872,37.946429
749.482413,37.803571
749.552927,38.803571
749.623413,38.946429
749.693871,37.946429
749.764300,38.946429
749.834702,38.232143
749.905075,38.089286
